#-----------------------------------------------
# data_format   :  2.1
# original_file :  6008_Au_D2_v1J2_x=35.dat
# date          :  Thu Dec  3 02:56:09 2015
# molecule      :  D2
# temperature   :  1063
# v             :  1
# J             :  2
# data_col      :  2
# data_row      :  47
#-----------------------------------------------

#-----------------------------------------------
# Original Header
#-----------------------------------------------
# Counter Settings:
# Falling Edge
# Disc Threshold [V]	-0.301514
# Dwell time [s]	2.000000E-8
# Number of channels	3750
# Number of Scans	25000
# 
# D2
# v1
# J 2
# 29.5V 3.28A
# Au 790C
# Knnew  ?C
# Kn  e-2mbar (base 1.6e-2)
# x=35mm y=35.5mm z=512mm
# D2/RGA 8.0e-11 torr (base 9e-12)
# 500: 1.0e-8 mbar
# 100: 1.8e-9 mbar
# FFR heater 4.0A 1.49V
# extra heater 3.0A 0.5V
# Extractor: -30V
# Lens: -1200V
# MCP: -2100V
# Laser Position	207.503573
# 
# Laser Power [mJ]	1.214505
# Time [µs]	Counts

#-----------------------------------------------
# Begin Data
#-----------------------------------------------
  0.00          4.06350e+04
  0.02          8.42200e+03
  0.04          1.66000e+02
  0.06          1.44000e+02
  0.08          1.19000e+02
  0.10          5.40000e+01
  0.12          2.60000e+01
  0.14          2.10000e+01
  0.16          2.80000e+01
  0.18          3.60000e+01
  0.20          3.20000e+01
  0.22          4.00000e+01
  0.24          4.00000e+01
  0.26          8.30000e+01
  0.28          9.40000e+01
  0.30          8.00000e+01
  0.32          7.60000e+01
  0.34          7.60000e+01
  0.36          8.70000e+01
  0.38          1.19000e+02
  0.40          1.11000e+02
  0.42          1.37000e+02
  0.44          1.03000e+02
  0.46          9.00000e+01
  0.48          9.80000e+01
  0.50          7.00000e+01
  0.52          1.08000e+02
  0.54          7.10000e+01
  0.56          6.20000e+01
  0.58          5.20000e+01
  0.60          6.60000e+01
  0.62          6.90000e+01
  0.64          9.50000e+01
  0.66          1.02000e+02
  0.68          1.03000e+02
  0.70          8.10000e+01
  0.72          1.09000e+02
  0.74          1.45000e+02
  0.76          1.51000e+02
  0.78          1.88000e+02
  0.80          2.39000e+02
  0.82          2.57000e+02
  0.84          2.54000e+02
  0.86          2.42000e+02
  0.88          2.73000e+02
  0.90          3.30000e+02
  0.92          3.65000e+02
  0.94          3.80000e+02
  0.96          4.50000e+02
  0.98          5.55000e+02
  1.00          7.03000e+02
  1.02          8.08000e+02
  1.04          8.96000e+02
  1.06          9.14000e+02
  1.08          9.01000e+02
  1.10          7.65000e+02
  1.12          5.74000e+02
  1.14          4.50000e+02
  1.16          3.74000e+02
  1.18          3.02000e+02
  1.20          2.81000e+02
  1.22          2.25000e+02
  1.24          2.26000e+02
  1.26          2.15000e+02
  1.28          2.23000e+02
  1.30          2.08000e+02
  1.32          1.86000e+02
  1.34          1.97000e+02
  1.36          1.72000e+02
  1.38          1.72000e+02
  1.40          1.70000e+02
  1.42          1.57000e+02
  1.44          1.45000e+02
  1.46          1.23000e+02
  1.48          1.08000e+02
  1.50          1.14000e+02
  1.52          1.06000e+02
  1.54          7.30000e+01
  1.56          8.00000e+01
  1.58          6.40000e+01
  1.60          5.40000e+01
  1.62          4.70000e+01
  1.64          5.50000e+01
  1.66          4.60000e+01
  1.68          5.50000e+01
  1.70          4.30000e+01
  1.72          4.20000e+01
  1.74          4.30000e+01
  1.76          3.90000e+01
  1.78          4.90000e+01
  1.80          4.40000e+01
  1.82          3.80000e+01
  1.84          4.10000e+01
  1.86          3.80000e+01
  1.88          4.40000e+01
  1.90          4.30000e+01
  1.92          3.00000e+01
  1.94          3.60000e+01
  1.96          5.50000e+01
  1.98          5.50000e+01
  2.00          5.60000e+01
  2.02          5.10000e+01
  2.04          4.50000e+01
  2.06          6.20000e+01
  2.08          5.60000e+01
  2.10          4.70000e+01
  2.12          4.30000e+01
  2.14          3.70000e+01
  2.16          3.50000e+01
  2.18          4.40000e+01
  2.20          4.50000e+01
  2.22          4.80000e+01
  2.24          4.40000e+01
  2.26          5.50000e+01
  2.28          5.30000e+01
  2.30          4.90000e+01
  2.32          3.90000e+01
  2.34          3.90000e+01
  2.36          4.70000e+01
  2.38          3.30000e+01
  2.40          2.40000e+01
  2.42          3.30000e+01
  2.44          3.80000e+01
  2.46          2.30000e+01
  2.48          1.70000e+01
  2.50          3.30000e+01
  2.52          3.40000e+01
  2.54          2.90000e+01
  2.56          2.80000e+01
  2.58          3.20000e+01
  2.60          4.00000e+01
  2.62          3.50000e+01
  2.64          2.10000e+01
  2.66          2.00000e+01
  2.68          3.60000e+01
  2.70          4.00000e+01
  2.72          3.00000e+01
  2.74          1.70000e+01
  2.76          1.80000e+01
  2.78          3.20000e+01
  2.80          2.50000e+01
  2.82          1.80000e+01
  2.84          2.10000e+01
  2.86          1.30000e+01
  2.88          1.80000e+01
  2.90          3.30000e+01
  2.92          2.60000e+01
  2.94          3.40000e+01
  2.96          3.40000e+01
  2.98          2.30000e+01
  3.00          2.10000e+01
  3.02          2.40000e+01
  3.04          2.40000e+01
  3.06          2.50000e+01
  3.08          2.40000e+01
  3.10          2.30000e+01
  3.12          2.40000e+01
  3.14          2.70000e+01
  3.16          1.10000e+01
  3.18          2.70000e+01
  3.20          2.90000e+01
  3.22          2.20000e+01
  3.24          1.90000e+01
  3.26          2.00000e+01
  3.28          2.20000e+01
  3.30          2.50000e+01
  3.32          2.60000e+01
  3.34          2.50000e+01
  3.36          4.10000e+01
  3.38          2.30000e+01
  3.40          3.30000e+01
  3.42          2.10000e+01
  3.44          2.30000e+01
  3.46          2.90000e+01
  3.48          2.60000e+01
  3.50          3.40000e+01
  3.52          3.20000e+01
  3.54          2.80000e+01
  3.56          2.30000e+01
  3.58          2.70000e+01
  3.60          3.60000e+01
  3.62          3.20000e+01
  3.64          3.20000e+01
  3.66          2.70000e+01
  3.68          2.90000e+01
  3.70          2.90000e+01
  3.72          4.10000e+01
  3.74          2.70000e+01
  3.76          3.10000e+01
  3.78          3.00000e+01
  3.80          3.10000e+01
  3.82          2.30000e+01
  3.84          1.70000e+01
  3.86          3.00000e+01
  3.88          3.50000e+01
  3.90          2.90000e+01
  3.92          2.50000e+01
  3.94          3.40000e+01
  3.96          3.10000e+01
  3.98          2.90000e+01
  4.00          4.40000e+01
  4.02          3.60000e+01
  4.04          3.00000e+01
  4.06          3.80000e+01
  4.08          2.90000e+01
  4.10          4.40000e+01
  4.12          4.80000e+01
  4.14          4.00000e+01
  4.16          3.60000e+01
  4.18          3.90000e+01
  4.20          2.30000e+01
  4.22          4.80000e+01
  4.24          4.00000e+01
  4.26          3.90000e+01
  4.28          4.40000e+01
  4.30          5.00000e+01
  4.32          4.00000e+01
  4.34          1.90000e+01
  4.36          2.80000e+01
  4.38          4.90000e+01
  4.40          3.40000e+01
  4.42          3.80000e+01
  4.44          4.80000e+01
  4.46          3.80000e+01
  4.48          3.80000e+01
  4.50          2.50000e+01
  4.52          3.60000e+01
  4.54          4.30000e+01
  4.56          2.90000e+01
  4.58          3.50000e+01
  4.60          4.00000e+01
  4.62          3.60000e+01
  4.64          3.90000e+01
  4.66          4.20000e+01
  4.68          3.60000e+01
  4.70          3.30000e+01
  4.72          3.80000e+01
  4.74          2.90000e+01
  4.76          4.30000e+01
  4.78          4.00000e+01
  4.80          4.00000e+01
  4.82          2.80000e+01
  4.84          2.90000e+01
  4.86          3.50000e+01
  4.88          3.60000e+01
  4.90          3.20000e+01
  4.92          2.70000e+01
  4.94          3.30000e+01
  4.96          3.80000e+01
  4.98          3.40000e+01
  5.00          4.50000e+01
  5.02          5.30000e+01
  5.04          3.60000e+01
  5.06          3.70000e+01
  5.08          4.30000e+01
  5.10          5.00000e+01
  5.12          4.20000e+01
  5.14          4.50000e+01
  5.16          3.50000e+01
  5.18          5.00000e+01
  5.20          4.60000e+01
  5.22          4.70000e+01
  5.24          5.00000e+01
  5.26          5.10000e+01
  5.28          5.30000e+01
  5.30          5.10000e+01
  5.32          6.90000e+01
  5.34          5.10000e+01
  5.36          6.30000e+01
  5.38          5.80000e+01
  5.40          4.20000e+01
  5.42          4.80000e+01
  5.44          4.70000e+01
  5.46          4.70000e+01
  5.48          6.20000e+01
  5.50          5.60000e+01
  5.52          4.60000e+01
  5.54          4.00000e+01
  5.56          5.00000e+01
  5.58          4.10000e+01
  5.60          4.10000e+01
  5.62          4.10000e+01
  5.64          5.00000e+01
  5.66          4.70000e+01
  5.68          4.60000e+01
  5.70          4.50000e+01
  5.72          5.70000e+01
  5.74          5.10000e+01
  5.76          4.70000e+01
  5.78          5.80000e+01
  5.80          5.10000e+01
  5.82          5.70000e+01
  5.84          5.30000e+01
  5.86          4.50000e+01
  5.88          4.20000e+01
  5.90          5.00000e+01
  5.92          4.70000e+01
  5.94          4.60000e+01
  5.96          4.00000e+01
  5.98          4.70000e+01
  6.00          5.60000e+01
  6.02          5.60000e+01
  6.04          5.00000e+01
  6.06          5.20000e+01
  6.08          4.20000e+01
  6.10          3.40000e+01
  6.12          3.00000e+01
  6.14          5.00000e+01
  6.16          5.10000e+01
  6.18          5.30000e+01
  6.20          5.70000e+01
  6.22          3.60000e+01
  6.24          3.30000e+01
  6.26          3.30000e+01
  6.28          4.60000e+01
  6.30          5.50000e+01
  6.32          4.20000e+01
  6.34          5.60000e+01
  6.36          6.00000e+01
  6.38          5.20000e+01
  6.40          4.80000e+01
  6.42          7.00000e+01
  6.44          6.60000e+01
  6.46          4.30000e+01
  6.48          4.80000e+01
  6.50          4.40000e+01
  6.52          4.80000e+01
  6.54          5.00000e+01
  6.56          5.70000e+01
  6.58          6.70000e+01
  6.60          5.50000e+01
  6.62          4.40000e+01
  6.64          3.90000e+01
  6.66          6.60000e+01
  6.68          5.90000e+01
  6.70          5.60000e+01
  6.72          6.70000e+01
  6.74          5.70000e+01
  6.76          5.70000e+01
  6.78          7.00000e+01
  6.80          7.00000e+01
  6.82          5.90000e+01
  6.84          5.40000e+01
  6.86          5.30000e+01
  6.88          5.20000e+01
  6.90          6.50000e+01
  6.92          5.60000e+01
  6.94          7.20000e+01
  6.96          7.50000e+01
  6.98          7.40000e+01
  7.00          8.00000e+01
  7.02          7.70000e+01
  7.04          5.00000e+01
  7.06          5.90000e+01
  7.08          7.80000e+01
  7.10          5.60000e+01
  7.12          6.70000e+01
  7.14          6.10000e+01
  7.16          6.60000e+01
  7.18          6.30000e+01
  7.20          6.50000e+01
  7.22          6.70000e+01
  7.24          7.00000e+01
  7.26          7.10000e+01
  7.28          7.40000e+01
  7.30          4.60000e+01
  7.32          4.60000e+01
  7.34          5.30000e+01
  7.36          4.70000e+01
  7.38          5.90000e+01
  7.40          5.80000e+01
  7.42          5.70000e+01
  7.44          5.00000e+01
  7.46          6.20000e+01
  7.48          9.70000e+01
  7.50          8.50000e+01
  7.52          6.80000e+01
  7.54          4.60000e+01
  7.56          4.80000e+01
  7.58          5.40000e+01
  7.60          6.00000e+01
  7.62          5.40000e+01
  7.64          4.30000e+01
  7.66          5.60000e+01
  7.68          6.30000e+01
  7.70          4.40000e+01
  7.72          5.00000e+01
  7.74          6.40000e+01
  7.76          6.30000e+01
  7.78          5.30000e+01
  7.80          5.40000e+01
  7.82          4.10000e+01
  7.84          6.10000e+01
  7.86          6.60000e+01
  7.88          7.40000e+01
  7.90          7.70000e+01
  7.92          4.70000e+01
  7.94          5.10000e+01
  7.96          6.30000e+01
  7.98          6.40000e+01
  8.00          6.50000e+01
  8.02          6.70000e+01
  8.04          6.50000e+01
  8.06          5.10000e+01
  8.08          6.20000e+01
  8.10          5.90000e+01
  8.12          5.90000e+01
  8.14          5.00000e+01
  8.16          5.80000e+01
  8.18          4.50000e+01
  8.20          5.40000e+01
  8.22          5.50000e+01
  8.24          6.00000e+01
  8.26          5.70000e+01
  8.28          6.00000e+01
  8.30          6.10000e+01
  8.32          6.60000e+01
  8.34          6.10000e+01
  8.36          5.90000e+01
  8.38          6.60000e+01
  8.40          7.20000e+01
  8.42          6.10000e+01
  8.44          7.10000e+01
  8.46          4.10000e+01
  8.48          5.20000e+01
  8.50          5.70000e+01
  8.52          7.60000e+01
  8.54          7.80000e+01
  8.56          8.30000e+01
  8.58          8.70000e+01
  8.60          7.60000e+01
  8.62          7.80000e+01
  8.64          8.50000e+01
  8.66          8.20000e+01
  8.68          7.30000e+01
  8.70          1.01000e+02
  8.72          1.14000e+02
  8.74          8.90000e+01
  8.76          8.30000e+01
  8.78          8.80000e+01
  8.80          1.03000e+02
  8.82          1.09000e+02
  8.84          1.02000e+02
  8.86          8.80000e+01
  8.88          9.90000e+01
  8.90          1.27000e+02
  8.92          1.29000e+02
  8.94          1.18000e+02
  8.96          1.45000e+02
  8.98          1.26000e+02
  9.00          1.00000e+02
  9.02          1.10000e+02
  9.04          1.37000e+02
  9.06          1.27000e+02
  9.08          1.38000e+02
  9.10          1.45000e+02
  9.12          1.61000e+02
  9.14          1.69000e+02
  9.16          1.42000e+02
  9.18          1.39000e+02
  9.20          1.58000e+02
  9.22          1.86000e+02
  9.24          1.95000e+02
  9.26          1.78000e+02
  9.28          1.97000e+02
  9.30          1.74000e+02
  9.32          1.36000e+02
  9.34          1.74000e+02
  9.36          2.06000e+02
  9.38          1.89000e+02
  9.40          1.98000e+02
  9.42          1.67000e+02
  9.44          1.76000e+02
  9.46          1.77000e+02
  9.48          1.76000e+02
  9.50          1.77000e+02
  9.52          1.81000e+02
  9.54          2.03000e+02
  9.56          1.99000e+02
  9.58          1.75000e+02
  9.60          1.72000e+02
  9.62          1.81000e+02
  9.64          1.69000e+02
  9.66          1.50000e+02
  9.68          1.44000e+02
  9.70          1.53000e+02
  9.72          1.65000e+02
  9.74          1.59000e+02
  9.76          1.55000e+02
  9.78          1.49000e+02
  9.80          1.63000e+02
  9.82          1.76000e+02
  9.84          1.68000e+02
  9.86          1.61000e+02
  9.88          1.37000e+02
  9.90          1.55000e+02
  9.92          1.51000e+02
  9.94          1.75000e+02
  9.96          1.55000e+02
  9.98          1.25000e+02
 10.00          1.17000e+02
 10.02          1.41000e+02
 10.04          1.37000e+02
 10.06          1.44000e+02
 10.08          1.32000e+02
 10.10          1.32000e+02
 10.12          1.36000e+02
 10.14          1.27000e+02
 10.16          1.45000e+02
 10.18          1.38000e+02
 10.20          1.33000e+02
 10.22          1.23000e+02
 10.24          1.22000e+02
 10.26          1.23000e+02
 10.28          9.10000e+01
 10.30          1.03000e+02
 10.32          1.32000e+02
 10.34          1.22000e+02
 10.36          1.25000e+02
 10.38          1.22000e+02
 10.40          1.07000e+02
 10.42          8.30000e+01
 10.44          1.04000e+02
 10.46          9.70000e+01
 10.48          9.60000e+01
 10.50          9.70000e+01
 10.52          8.90000e+01
 10.54          9.90000e+01
 10.56          9.60000e+01
 10.58          1.08000e+02
 10.60          9.90000e+01
 10.62          8.70000e+01
 10.64          8.50000e+01
 10.66          7.50000e+01
 10.68          1.01000e+02
 10.70          9.20000e+01
 10.72          9.70000e+01
 10.74          8.10000e+01
 10.76          7.90000e+01
 10.78          7.40000e+01
 10.80          8.60000e+01
 10.82          7.70000e+01
 10.84          9.20000e+01
 10.86          8.40000e+01
 10.88          8.00000e+01
 10.90          9.60000e+01
 10.92          6.10000e+01
 10.94          6.00000e+01
 10.96          7.00000e+01
 10.98          7.00000e+01
 11.00          6.60000e+01
 11.02          7.50000e+01
 11.04          7.80000e+01
 11.06          6.90000e+01
 11.08          7.10000e+01
 11.10          6.00000e+01
 11.12          6.30000e+01
 11.14          6.30000e+01
 11.16          5.70000e+01
 11.18          5.80000e+01
 11.20          7.20000e+01
 11.22          6.10000e+01
 11.24          4.80000e+01
 11.26          4.20000e+01
 11.28          5.00000e+01
 11.30          6.10000e+01
 11.32          6.00000e+01
 11.34          5.30000e+01
 11.36          6.20000e+01
 11.38          8.00000e+01
 11.40          6.30000e+01
 11.42          5.80000e+01
 11.44          5.80000e+01
 11.46          5.60000e+01
 11.48          4.70000e+01
 11.50          6.10000e+01
 11.52          5.90000e+01
 11.54          4.80000e+01
 11.56          5.60000e+01
 11.58          4.60000e+01
 11.60          4.80000e+01
 11.62          5.10000e+01
 11.64          3.80000e+01
 11.66          3.90000e+01
 11.68          4.70000e+01
 11.70          4.70000e+01
 11.72          4.10000e+01
 11.74          5.20000e+01
 11.76          4.50000e+01
 11.78          4.20000e+01
 11.80          4.70000e+01
 11.82          7.10000e+01
 11.84          6.00000e+01
 11.86          4.40000e+01
 11.88          5.70000e+01
 11.90          4.40000e+01
 11.92          4.50000e+01
 11.94          3.80000e+01
 11.96          4.60000e+01
 11.98          4.90000e+01
 12.00          3.70000e+01
 12.02          3.20000e+01
 12.04          3.50000e+01
 12.06          4.00000e+01
 12.08          3.50000e+01
 12.10          3.60000e+01
 12.12          4.30000e+01
 12.14          4.50000e+01
 12.16          4.10000e+01
 12.18          4.20000e+01
 12.20          5.60000e+01
 12.22          5.60000e+01
 12.24          4.00000e+01
 12.26          2.70000e+01
 12.28          4.50000e+01
 12.30          5.20000e+01
 12.32          4.10000e+01
 12.34          3.10000e+01
 12.36          4.30000e+01
 12.38          4.30000e+01
 12.40          3.30000e+01
 12.42          2.50000e+01
 12.44          2.60000e+01
 12.46          3.50000e+01
 12.48          4.00000e+01
 12.50          3.20000e+01
 12.52          3.90000e+01
 12.54          3.70000e+01
 12.56          2.60000e+01
 12.58          3.90000e+01
 12.60          4.20000e+01
 12.62          3.90000e+01
 12.64          4.40000e+01
 12.66          4.30000e+01
 12.68          4.00000e+01
 12.70          3.60000e+01
 12.72          6.10000e+01
 12.74          4.50000e+01
 12.76          4.00000e+01
 12.78          4.10000e+01
 12.80          4.10000e+01
 12.82          3.50000e+01
 12.84          3.80000e+01
 12.86          3.20000e+01
 12.88          4.10000e+01
 12.90          4.20000e+01
 12.92          4.40000e+01
 12.94          5.10000e+01
 12.96          4.40000e+01
 12.98          5.00000e+01
 13.00          5.70000e+01
 13.02          3.30000e+01
 13.04          3.20000e+01
 13.06          3.50000e+01
 13.08          4.70000e+01
 13.10          4.60000e+01
 13.12          3.50000e+01
 13.14          3.80000e+01
 13.16          2.90000e+01
 13.18          3.80000e+01
 13.20          3.90000e+01
 13.22          3.90000e+01
 13.24          3.40000e+01
 13.26          3.50000e+01
 13.28          3.40000e+01
 13.30          5.00000e+01
 13.32          5.00000e+01
 13.34          4.70000e+01
 13.36          3.60000e+01
 13.38          3.70000e+01
 13.40          4.20000e+01
 13.42          3.10000e+01
 13.44          3.40000e+01
 13.46          3.70000e+01
 13.48          5.00000e+01
 13.50          4.80000e+01
 13.52          3.10000e+01
 13.54          3.30000e+01
 13.56          2.80000e+01
 13.58          4.60000e+01
 13.60          4.90000e+01
 13.62          5.20000e+01
 13.64          3.50000e+01
 13.66          3.20000e+01
 13.68          3.70000e+01
 13.70          3.80000e+01
 13.72          2.90000e+01
 13.74          4.30000e+01
 13.76          5.20000e+01
 13.78          4.30000e+01
 13.80          2.80000e+01
 13.82          3.50000e+01
 13.84          4.20000e+01
 13.86          4.40000e+01
 13.88          3.90000e+01
 13.90          4.40000e+01
 13.92          4.40000e+01
 13.94          3.20000e+01
 13.96          4.30000e+01
 13.98          3.40000e+01
 14.00          4.20000e+01
 14.02          4.10000e+01
 14.04          3.90000e+01
 14.06          4.30000e+01
 14.08          4.70000e+01
 14.10          4.50000e+01
 14.12          2.50000e+01
 14.14          4.30000e+01
 14.16          5.30000e+01
 14.18          4.40000e+01
 14.20          3.40000e+01
 14.22          3.90000e+01
 14.24          3.30000e+01
 14.26          4.50000e+01
 14.28          4.60000e+01
 14.30          4.60000e+01
 14.32          5.20000e+01
 14.34          4.00000e+01
 14.36          3.50000e+01
 14.38          4.40000e+01
 14.40          3.70000e+01
 14.42          3.70000e+01
 14.44          3.80000e+01
 14.46          3.90000e+01
 14.48          2.90000e+01
 14.50          4.20000e+01
 14.52          5.10000e+01
 14.54          5.30000e+01
 14.56          5.50000e+01
 14.58          4.40000e+01
 14.60          4.20000e+01
 14.62          3.30000e+01
 14.64          4.70000e+01
 14.66          4.10000e+01
 14.68          4.80000e+01
 14.70          4.30000e+01
 14.72          4.20000e+01
 14.74          4.00000e+01
 14.76          5.40000e+01
 14.78          4.00000e+01
 14.80          2.50000e+01
 14.82          5.40000e+01
 14.84          4.40000e+01
 14.86          4.20000e+01
 14.88          3.30000e+01
 14.90          4.90000e+01
 14.92          5.70000e+01
 14.94          5.70000e+01
 14.96          4.90000e+01
 14.98          1.90000e+01
 15.00          3.50000e+01
 15.02          3.10000e+01
 15.04          3.20000e+01
 15.06          5.40000e+01
 15.08          4.60000e+01
 15.10          5.20000e+01
 15.12          4.90000e+01
 15.14          4.00000e+01
 15.16          3.70000e+01
 15.18          4.40000e+01
 15.20          3.50000e+01
 15.22          3.30000e+01
 15.24          4.30000e+01
 15.26          4.10000e+01
 15.28          4.00000e+01
 15.30          4.20000e+01
 15.32          4.40000e+01
 15.34          2.80000e+01
 15.36          3.90000e+01
 15.38          3.50000e+01
 15.40          4.40000e+01
 15.42          4.50000e+01
 15.44          4.50000e+01
 15.46          5.20000e+01
 15.48          4.40000e+01
 15.50          4.30000e+01
 15.52          3.70000e+01
 15.54          3.90000e+01
 15.56          4.00000e+01
 15.58          3.70000e+01
 15.60          3.90000e+01
 15.62          5.10000e+01
 15.64          5.70000e+01
 15.66          4.20000e+01
 15.68          4.30000e+01
 15.70          3.60000e+01
 15.72          3.60000e+01
 15.74          3.00000e+01
 15.76          4.60000e+01
 15.78          5.20000e+01
 15.80          4.60000e+01
 15.82          3.90000e+01
 15.84          3.00000e+01
 15.86          3.20000e+01
 15.88          4.60000e+01
 15.90          6.10000e+01
 15.92          5.40000e+01
 15.94          4.10000e+01
 15.96          4.00000e+01
 15.98          3.30000e+01
 16.00          3.40000e+01
 16.02          4.60000e+01
 16.04          4.30000e+01
 16.06          4.20000e+01
 16.08          4.90000e+01
 16.10          5.20000e+01
 16.12          3.40000e+01
 16.14          3.30000e+01
 16.16          4.40000e+01
 16.18          3.00000e+01
 16.20          2.90000e+01
 16.22          4.50000e+01
 16.24          4.60000e+01
 16.26          4.40000e+01
 16.28          4.10000e+01
 16.30          3.00000e+01
 16.32          3.90000e+01
 16.34          5.00000e+01
 16.36          4.00000e+01
 16.38          3.80000e+01
 16.40          4.30000e+01
 16.42          4.70000e+01
 16.44          2.70000e+01
 16.46          4.70000e+01
 16.48          4.30000e+01
 16.50          4.80000e+01
 16.52          2.80000e+01
 16.54          4.40000e+01
 16.56          4.30000e+01
 16.58          4.10000e+01
 16.60          4.10000e+01
 16.62          5.10000e+01
 16.64          5.20000e+01
 16.66          3.50000e+01
 16.68          3.70000e+01
 16.70          4.10000e+01
 16.72          3.40000e+01
 16.74          3.70000e+01
 16.76          4.60000e+01
 16.78          4.90000e+01
 16.80          3.90000e+01
 16.82          3.20000e+01
 16.84          3.30000e+01
 16.86          3.60000e+01
 16.88          3.00000e+01
 16.90          3.70000e+01
 16.92          3.20000e+01
 16.94          3.40000e+01
 16.96          3.50000e+01
 16.98          4.40000e+01
 17.00          3.90000e+01
 17.02          4.30000e+01
 17.04          3.80000e+01
 17.06          4.10000e+01
 17.08          3.70000e+01
 17.10          4.00000e+01
 17.12          4.70000e+01
 17.14          5.00000e+01
 17.16          3.80000e+01
 17.18          3.60000e+01
 17.20          3.40000e+01
 17.22          4.70000e+01
 17.24          5.00000e+01
 17.26          5.40000e+01
 17.28          3.90000e+01
 17.30          4.10000e+01
 17.32          4.00000e+01
 17.34          4.40000e+01
 17.36          2.70000e+01
 17.38          3.40000e+01
 17.40          3.50000e+01
 17.42          3.60000e+01
 17.44          3.40000e+01
 17.46          4.10000e+01
 17.48          4.90000e+01
 17.50          4.50000e+01
 17.52          4.00000e+01
 17.54          3.90000e+01
 17.56          3.00000e+01
 17.58          3.60000e+01
 17.60          4.70000e+01
 17.62          4.30000e+01
 17.64          4.10000e+01
 17.66          4.00000e+01
 17.68          3.70000e+01
 17.70          3.90000e+01
 17.72          3.70000e+01
 17.74          3.60000e+01
 17.76          4.90000e+01
 17.78          5.40000e+01
 17.80          4.80000e+01
 17.82          3.60000e+01
 17.84          3.20000e+01
 17.86          3.40000e+01
 17.88          3.50000e+01
 17.90          3.30000e+01
 17.92          2.60000e+01
 17.94          2.80000e+01
 17.96          4.70000e+01
 17.98          4.80000e+01
 18.00          5.30000e+01
 18.02          3.60000e+01
 18.04          3.30000e+01
 18.06          3.50000e+01
 18.08          3.70000e+01
 18.10          6.00000e+01
 18.12          4.60000e+01
 18.14          3.90000e+01
 18.16          4.10000e+01
 18.18          3.70000e+01
 18.20          3.50000e+01
 18.22          3.00000e+01
 18.24          4.10000e+01
 18.26          4.30000e+01
 18.28          3.40000e+01
 18.30          3.60000e+01
 18.32          4.40000e+01
 18.34          3.80000e+01
 18.36          5.80000e+01
 18.38          5.00000e+01
 18.40          3.40000e+01
 18.42          4.70000e+01
 18.44          4.50000e+01
 18.46          3.80000e+01
 18.48          4.10000e+01
 18.50          3.90000e+01
 18.52          3.40000e+01
 18.54          3.30000e+01
 18.56          5.30000e+01
 18.58          3.40000e+01
 18.60          4.10000e+01
 18.62          4.40000e+01
 18.64          3.50000e+01
 18.66          3.70000e+01
 18.68          4.20000e+01
 18.70          4.30000e+01
 18.72          3.30000e+01
 18.74          4.00000e+01
 18.76          4.40000e+01
 18.78          3.90000e+01
 18.80          3.80000e+01
 18.82          4.20000e+01
 18.84          3.00000e+01
 18.86          3.50000e+01
 18.88          4.80000e+01
 18.90          4.00000e+01
 18.92          4.00000e+01
 18.94          3.50000e+01
 18.96          4.30000e+01
 18.98          5.60000e+01
 19.00          4.90000e+01
 19.02          5.00000e+01
 19.04          4.60000e+01
 19.06          3.60000e+01
 19.08          4.90000e+01
 19.10          4.10000e+01
 19.12          4.40000e+01
 19.14          3.10000e+01
 19.16          3.40000e+01
 19.18          4.20000e+01
 19.20          3.20000e+01
 19.22          3.80000e+01
 19.24          4.70000e+01
 19.26          4.10000e+01
 19.28          4.20000e+01
 19.30          4.30000e+01
 19.32          3.70000e+01
 19.34          4.10000e+01
 19.36          4.00000e+01
 19.38          4.10000e+01
 19.40          3.20000e+01
 19.42          4.60000e+01
 19.44          4.00000e+01
 19.46          5.00000e+01
 19.48          5.70000e+01
 19.50          3.40000e+01
 19.52          4.60000e+01
 19.54          5.80000e+01
 19.56          4.50000e+01
 19.58          4.20000e+01
 19.60          5.20000e+01
 19.62          4.10000e+01
 19.64          4.20000e+01
 19.66          4.40000e+01
 19.68          4.20000e+01
 19.70          4.40000e+01
 19.72          6.40000e+01
 19.74          5.40000e+01
 19.76          3.90000e+01
 19.78          4.10000e+01
 19.80          4.90000e+01
 19.82          5.10000e+01
 19.84          3.20000e+01
 19.86          3.50000e+01
 19.88          3.90000e+01
 19.90          5.50000e+01
 19.92          5.20000e+01
 19.94          5.20000e+01
 19.96          4.50000e+01
 19.98          3.90000e+01
 20.00          5.10000e+01
 20.02          3.70000e+01
 20.04          5.50000e+01
 20.06          4.80000e+01
 20.08          4.20000e+01
 20.10          5.10000e+01
 20.12          6.40000e+01
 20.14          5.00000e+01
 20.16          5.10000e+01
 20.18          5.70000e+01
 20.20          6.00000e+01
 20.22          6.30000e+01
 20.24          5.90000e+01
 20.26          4.70000e+01
 20.28          4.50000e+01
 20.30          4.20000e+01
 20.32          3.00000e+01
 20.34          4.80000e+01
 20.36          5.40000e+01
 20.38          5.00000e+01
 20.40          5.80000e+01
 20.42          5.60000e+01
 20.44          4.10000e+01
 20.46          4.50000e+01
 20.48          5.30000e+01
 20.50          4.30000e+01
 20.52          3.90000e+01
 20.54          3.90000e+01
 20.56          3.90000e+01
 20.58          3.30000e+01
 20.60          3.00000e+01
 20.62          4.60000e+01
 20.64          5.70000e+01
 20.66          6.50000e+01
 20.68          5.40000e+01
 20.70          5.30000e+01
 20.72          4.80000e+01
 20.74          4.40000e+01
 20.76          4.60000e+01
 20.78          6.20000e+01
 20.80          4.70000e+01
 20.82          5.10000e+01
 20.84          4.50000e+01
 20.86          4.90000e+01
 20.88          5.80000e+01
 20.90          4.60000e+01
 20.92          4.40000e+01
 20.94          4.80000e+01
 20.96          4.80000e+01
 20.98          4.40000e+01
 21.00          3.50000e+01
 21.02          2.60000e+01
 21.04          3.20000e+01
 21.06          4.00000e+01
 21.08          5.50000e+01
 21.10          5.20000e+01
 21.12          5.60000e+01
 21.14          4.90000e+01
 21.16          4.50000e+01
 21.18          2.80000e+01
 21.20          3.40000e+01
 21.22          4.80000e+01
 21.24          5.00000e+01
 21.26          5.50000e+01
 21.28          5.60000e+01
 21.30          4.80000e+01
 21.32          5.60000e+01
 21.34          5.10000e+01
 21.36          4.50000e+01
 21.38          4.90000e+01
 21.40          4.60000e+01
 21.42          5.30000e+01
 21.44          4.50000e+01
 21.46          4.00000e+01
 21.48          4.30000e+01
 21.50          4.80000e+01
 21.52          5.80000e+01
 21.54          4.10000e+01
 21.56          5.60000e+01
 21.58          4.00000e+01
 21.60          4.60000e+01
 21.62          4.10000e+01
 21.64          4.50000e+01
 21.66          5.00000e+01
 21.68          5.70000e+01
 21.70          3.90000e+01
 21.72          4.80000e+01
 21.74          5.50000e+01
 21.76          4.10000e+01
 21.78          3.30000e+01
 21.80          5.80000e+01
 21.82          4.60000e+01
 21.84          4.00000e+01
 21.86          4.70000e+01
 21.88          4.80000e+01
 21.90          4.90000e+01
 21.92          4.20000e+01
 21.94          4.20000e+01
 21.96          4.20000e+01
 21.98          5.10000e+01
 22.00          4.90000e+01
 22.02          4.60000e+01
 22.04          3.10000e+01
 22.06          3.50000e+01
 22.08          3.80000e+01
 22.10          4.20000e+01
 22.12          4.60000e+01
 22.14          4.80000e+01
 22.16          5.10000e+01
 22.18          4.30000e+01
 22.20          3.50000e+01
 22.22          3.30000e+01
 22.24          4.30000e+01
 22.26          4.10000e+01
 22.28          4.00000e+01
 22.30          5.50000e+01
 22.32          5.30000e+01
 22.34          3.60000e+01
 22.36          4.10000e+01
 22.38          4.10000e+01
 22.40          3.40000e+01
 22.42          3.90000e+01
 22.44          6.10000e+01
 22.46          4.20000e+01
 22.48          4.30000e+01
 22.50          6.60000e+01
 22.52          5.40000e+01
 22.54          5.70000e+01
 22.56          5.00000e+01
 22.58          4.40000e+01
 22.60          4.80000e+01
 22.62          4.40000e+01
 22.64          4.40000e+01
 22.66          5.30000e+01
 22.68          6.20000e+01
 22.70          5.10000e+01
 22.72          4.60000e+01
 22.74          4.20000e+01
 22.76          4.40000e+01
 22.78          5.50000e+01
 22.80          5.50000e+01
 22.82          5.60000e+01
 22.84          5.00000e+01
 22.86          5.90000e+01
 22.88          6.00000e+01
 22.90          5.90000e+01
 22.92          6.40000e+01
 22.94          5.50000e+01
 22.96          4.00000e+01
 22.98          4.70000e+01
 23.00          4.70000e+01
 23.02          4.40000e+01
 23.04          4.40000e+01
 23.06          4.80000e+01
 23.08          4.50000e+01
 23.10          4.60000e+01
 23.12          3.50000e+01
 23.14          4.30000e+01
 23.16          6.10000e+01
 23.18          4.40000e+01
 23.20          3.30000e+01
 23.22          3.30000e+01
 23.24          4.70000e+01
 23.26          4.90000e+01
 23.28          5.70000e+01
 23.30          6.00000e+01
 23.32          5.10000e+01
 23.34          4.90000e+01
 23.36          5.50000e+01
 23.38          3.90000e+01
 23.40          4.90000e+01
 23.42          4.30000e+01
 23.44          4.20000e+01
 23.46          4.20000e+01
 23.48          4.90000e+01
 23.50          4.40000e+01
 23.52          4.70000e+01
 23.54          4.30000e+01
 23.56          4.90000e+01
 23.58          2.90000e+01
 23.60          3.70000e+01
 23.62          5.50000e+01
 23.64          5.10000e+01
 23.66          4.60000e+01
 23.68          4.60000e+01
 23.70          6.10000e+01
 23.72          5.60000e+01
 23.74          4.50000e+01
 23.76          4.40000e+01
 23.78          4.90000e+01
 23.80          4.70000e+01
 23.82          4.60000e+01
 23.84          4.90000e+01
 23.86          5.70000e+01
 23.88          5.80000e+01
 23.90          5.50000e+01
 23.92          5.40000e+01
 23.94          5.00000e+01
 23.96          4.60000e+01
 23.98          5.30000e+01
 24.00          4.70000e+01
 24.02          4.50000e+01
 24.04          4.80000e+01
 24.06          4.80000e+01
 24.08          3.80000e+01
 24.10          4.90000e+01
 24.12          5.10000e+01
 24.14          4.30000e+01
 24.16          5.30000e+01
 24.18          5.10000e+01
 24.20          4.20000e+01
 24.22          4.20000e+01
 24.24          6.70000e+01
 24.26          4.80000e+01
 24.28          4.30000e+01
 24.30          4.50000e+01
 24.32          3.70000e+01
 24.34          3.00000e+01
 24.36          5.30000e+01
 24.38          3.50000e+01
 24.40          3.70000e+01
 24.42          5.50000e+01
 24.44          4.60000e+01
 24.46          4.60000e+01
 24.48          4.70000e+01
 24.50          5.70000e+01
 24.52          4.70000e+01
 24.54          4.40000e+01
 24.56          4.10000e+01
 24.58          4.00000e+01
 24.60          4.00000e+01
 24.62          3.90000e+01
 24.64          4.40000e+01
 24.66          4.80000e+01
 24.68          5.00000e+01
 24.70          5.80000e+01
 24.72          4.50000e+01
 24.74          5.40000e+01
 24.76          5.70000e+01
 24.78          5.30000e+01
 24.80          5.70000e+01
 24.82          4.80000e+01
 24.84          5.80000e+01
 24.86          5.40000e+01
 24.88          5.30000e+01
 24.90          3.50000e+01
 24.92          5.10000e+01
 24.94          5.00000e+01
 24.96          5.20000e+01
 24.98          4.70000e+01
 25.00          4.20000e+01
 25.02          4.20000e+01
 25.04          5.10000e+01
 25.06          6.10000e+01
 25.08          3.40000e+01
 25.10          3.30000e+01
 25.12          5.40000e+01
 25.14          6.20000e+01
 25.16          6.50000e+01
 25.18          4.40000e+01
 25.20          4.90000e+01
 25.22          5.30000e+01
 25.24          5.20000e+01
 25.26          4.70000e+01
 25.28          4.30000e+01
 25.30          2.90000e+01
 25.32          2.90000e+01
 25.34          3.70000e+01
 25.36          2.90000e+01
 25.38          5.30000e+01
 25.40          5.10000e+01
 25.42          5.10000e+01
 25.44          4.90000e+01
 25.46          4.90000e+01
 25.48          3.70000e+01
 25.50          4.10000e+01
 25.52          4.40000e+01
 25.54          4.70000e+01
 25.56          4.70000e+01
 25.58          5.80000e+01
 25.60          3.90000e+01
 25.62          3.50000e+01
 25.64          6.10000e+01
 25.66          5.00000e+01
 25.68          5.00000e+01
 25.70          2.90000e+01
 25.72          5.50000e+01
 25.74          4.30000e+01
 25.76          4.90000e+01
 25.78          5.30000e+01
 25.80          5.90000e+01
 25.82          5.60000e+01
 25.84          4.60000e+01
 25.86          4.40000e+01
 25.88          4.40000e+01
 25.90          3.20000e+01
 25.92          3.80000e+01
 25.94          4.80000e+01
 25.96          4.90000e+01
 25.98          4.70000e+01
 26.00          5.00000e+01
 26.02          5.10000e+01
 26.04          4.50000e+01
 26.06          5.90000e+01
 26.08          6.60000e+01
 26.10          5.40000e+01
 26.12          4.20000e+01
 26.14          3.90000e+01
 26.16          3.20000e+01
 26.18          4.50000e+01
 26.20          4.90000e+01
 26.22          4.30000e+01
 26.24          4.70000e+01
 26.26          4.20000e+01
 26.28          4.50000e+01
 26.30          6.10000e+01
 26.32          4.30000e+01
 26.34          3.60000e+01
 26.36          3.30000e+01
 26.38          5.90000e+01
 26.40          5.10000e+01
 26.42          4.80000e+01
 26.44          3.70000e+01
 26.46          3.30000e+01
 26.48          3.70000e+01
 26.50          5.40000e+01
 26.52          4.70000e+01
 26.54          3.80000e+01
 26.56          6.00000e+01
 26.58          6.30000e+01
 26.60          5.60000e+01
 26.62          5.20000e+01
 26.64          4.30000e+01
 26.66          4.50000e+01
 26.68          6.10000e+01
 26.70          5.40000e+01
 26.72          5.50000e+01
 26.74          4.60000e+01
 26.76          3.50000e+01
 26.78          3.90000e+01
 26.80          4.90000e+01
 26.82          6.30000e+01
 26.84          4.50000e+01
 26.86          4.70000e+01
 26.88          3.90000e+01
 26.90          3.30000e+01
 26.92          5.80000e+01
 26.94          4.50000e+01
 26.96          5.00000e+01
 26.98          4.90000e+01
 27.00          5.30000e+01
 27.02          4.70000e+01
 27.04          5.30000e+01
 27.06          5.00000e+01
 27.08          6.10000e+01
 27.10          5.10000e+01
 27.12          4.10000e+01
 27.14          5.20000e+01
 27.16          6.10000e+01
 27.18          4.90000e+01
 27.20          3.90000e+01
 27.22          3.60000e+01
 27.24          4.80000e+01
 27.26          3.60000e+01
 27.28          4.20000e+01
 27.30          4.70000e+01
 27.32          5.70000e+01
 27.34          4.80000e+01
 27.36          5.20000e+01
 27.38          5.10000e+01
 27.40          4.90000e+01
 27.42          5.20000e+01
 27.44          5.50000e+01
 27.46          5.70000e+01
 27.48          5.40000e+01
 27.50          5.50000e+01
 27.52          4.80000e+01
 27.54          4.50000e+01
 27.56          4.10000e+01
 27.58          5.00000e+01
 27.60          5.30000e+01
 27.62          4.70000e+01
 27.64          4.80000e+01
 27.66          4.40000e+01
 27.68          4.00000e+01
 27.70          3.30000e+01
 27.72          6.40000e+01
 27.74          5.70000e+01
 27.76          4.60000e+01
 27.78          4.00000e+01
 27.80          4.30000e+01
 27.82          5.30000e+01
 27.84          3.90000e+01
 27.86          4.50000e+01
 27.88          4.00000e+01
 27.90          4.80000e+01
 27.92          4.30000e+01
 27.94          3.60000e+01
 27.96          5.10000e+01
 27.98          5.80000e+01
 28.00          5.40000e+01
 28.02          3.60000e+01
 28.04          3.60000e+01
 28.06          4.50000e+01
 28.08          5.20000e+01
 28.10          4.50000e+01
 28.12          3.60000e+01
 28.14          4.50000e+01
 28.16          4.70000e+01
 28.18          4.20000e+01
 28.20          4.40000e+01
 28.22          4.30000e+01
 28.24          4.70000e+01
 28.26          5.10000e+01
 28.28          4.40000e+01
 28.30          5.60000e+01
 28.32          4.30000e+01
 28.34          3.90000e+01
 28.36          4.00000e+01
 28.38          5.10000e+01
 28.40          5.50000e+01
 28.42          4.80000e+01
 28.44          3.90000e+01
 28.46          4.60000e+01
 28.48          5.90000e+01
 28.50          5.90000e+01
 28.52          5.10000e+01
 28.54          4.50000e+01
 28.56          4.20000e+01
 28.58          3.90000e+01
 28.60          4.80000e+01
 28.62          3.90000e+01
 28.64          5.20000e+01
 28.66          4.80000e+01
 28.68          3.70000e+01
 28.70          5.10000e+01
 28.72          5.10000e+01
 28.74          4.50000e+01
 28.76          3.90000e+01
 28.78          4.80000e+01
 28.80          4.80000e+01
 28.82          3.50000e+01
 28.84          4.10000e+01
 28.86          4.00000e+01
 28.88          3.20000e+01
 28.90          4.20000e+01
 28.92          4.60000e+01
 28.94          5.20000e+01
 28.96          5.20000e+01
 28.98          4.10000e+01
 29.00          4.40000e+01
 29.02          4.20000e+01
 29.04          4.80000e+01
 29.06          6.10000e+01
 29.08          4.40000e+01
 29.10          4.30000e+01
 29.12          4.40000e+01
 29.14          4.60000e+01
 29.16          4.50000e+01
 29.18          3.90000e+01
 29.20          4.10000e+01
 29.22          5.20000e+01
 29.24          4.00000e+01
 29.26          5.80000e+01
 29.28          5.40000e+01
 29.30          4.40000e+01
 29.32          4.30000e+01
 29.34          6.20000e+01
 29.36          4.30000e+01
 29.38          4.30000e+01
 29.40          4.50000e+01
 29.42          4.80000e+01
 29.44          4.00000e+01
 29.46          4.30000e+01
 29.48          4.80000e+01
 29.50          4.40000e+01
 29.52          5.10000e+01
 29.54          4.40000e+01
 29.56          4.80000e+01
 29.58          4.00000e+01
 29.60          6.40000e+01
 29.62          5.90000e+01
 29.64          5.70000e+01
 29.66          4.90000e+01
 29.68          4.70000e+01
 29.70          4.50000e+01
 29.72          5.30000e+01
 29.74          4.20000e+01
 29.76          3.80000e+01
 29.78          2.70000e+01
 29.80          4.50000e+01
 29.82          6.00000e+01
 29.84          5.90000e+01
 29.86          5.70000e+01
 29.88          5.00000e+01
 29.90          3.40000e+01
 29.92          3.90000e+01
 29.94          4.20000e+01
 29.96          3.30000e+01
 29.98          4.40000e+01
 30.00          4.70000e+01
 30.02          4.20000e+01
 30.04          3.80000e+01
 30.06          4.60000e+01
 30.08          5.30000e+01
 30.10          4.60000e+01
 30.12          4.90000e+01
 30.14          4.90000e+01
 30.16          3.30000e+01
 30.18          3.60000e+01
 30.20          4.50000e+01
 30.22          3.90000e+01
 30.24          5.10000e+01
 30.26          3.00000e+01
 30.28          2.90000e+01
 30.30          5.50000e+01
 30.32          4.40000e+01
 30.34          4.70000e+01
 30.36          4.50000e+01
 30.38          4.00000e+01
 30.40          3.30000e+01
 30.42          3.40000e+01
 30.44          4.60000e+01
 30.46          3.60000e+01
 30.48          4.10000e+01
 30.50          3.70000e+01
 30.52          3.60000e+01
 30.54          5.50000e+01
 30.56          5.50000e+01
 30.58          5.40000e+01
 30.60          5.90000e+01
 30.62          4.30000e+01
 30.64          3.70000e+01
 30.66          4.70000e+01
 30.68          5.10000e+01
 30.70          5.10000e+01
 30.72          5.30000e+01
 30.74          4.40000e+01
 30.76          4.80000e+01
 30.78          4.40000e+01
 30.80          3.80000e+01
 30.82          4.40000e+01
 30.84          5.10000e+01
 30.86          4.10000e+01
 30.88          3.80000e+01
 30.90          3.60000e+01
 30.92          3.80000e+01
 30.94          3.80000e+01
 30.96          4.50000e+01
 30.98          4.50000e+01
 31.00          3.30000e+01
 31.02          4.00000e+01
 31.04          4.30000e+01
 31.06          3.30000e+01
 31.08          4.30000e+01
 31.10          4.10000e+01
 31.12          4.10000e+01
 31.14          5.70000e+01
 31.16          4.60000e+01
 31.18          5.20000e+01
 31.20          4.80000e+01
 31.22          3.10000e+01
 31.24          3.80000e+01
 31.26          5.00000e+01
 31.28          3.90000e+01
 31.30          4.30000e+01
 31.32          3.70000e+01
 31.34          5.50000e+01
 31.36          5.40000e+01
 31.38          5.90000e+01
 31.40          4.00000e+01
 31.42          3.60000e+01
 31.44          2.40000e+01
 31.46          4.70000e+01
 31.48          3.60000e+01
 31.50          3.70000e+01
 31.52          3.80000e+01
 31.54          3.10000e+01
 31.56          4.10000e+01
 31.58          5.40000e+01
 31.60          4.20000e+01
 31.62          4.00000e+01
 31.64          4.70000e+01
 31.66          5.20000e+01
 31.68          5.20000e+01
 31.70          3.80000e+01
 31.72          4.60000e+01
 31.74          3.80000e+01
 31.76          3.60000e+01
 31.78          4.40000e+01
 31.80          3.70000e+01
 31.82          4.70000e+01
 31.84          3.40000e+01
 31.86          3.70000e+01
 31.88          4.10000e+01
 31.90          4.60000e+01
 31.92          4.60000e+01
 31.94          4.90000e+01
 31.96          5.50000e+01
 31.98          3.70000e+01
 32.00          3.60000e+01
 32.02          3.20000e+01
 32.04          3.60000e+01
 32.06          3.30000e+01
 32.08          3.50000e+01
 32.10          4.70000e+01
 32.12          3.90000e+01
 32.14          3.80000e+01
 32.16          3.60000e+01
 32.18          2.40000e+01
 32.20          4.40000e+01
 32.22          4.10000e+01
 32.24          4.50000e+01
 32.26          4.10000e+01
 32.28          4.20000e+01
 32.30          2.30000e+01
 32.32          5.70000e+01
 32.34          3.90000e+01
 32.36          5.30000e+01
 32.38          4.40000e+01
 32.40          3.80000e+01
 32.42          4.80000e+01
 32.44          3.00000e+01
 32.46          4.40000e+01
 32.48          3.60000e+01
 32.50          4.90000e+01
 32.52          3.30000e+01
 32.54          3.70000e+01
 32.56          3.50000e+01
 32.58          4.00000e+01
 32.60          4.60000e+01
 32.62          3.70000e+01
 32.64          4.00000e+01
 32.66          3.80000e+01
 32.68          4.20000e+01
 32.70          4.60000e+01
 32.72          4.40000e+01
 32.74          4.40000e+01
 32.76          4.90000e+01
 32.78          4.50000e+01
 32.80          4.30000e+01
 32.82          3.60000e+01
 32.84          3.20000e+01
 32.86          3.90000e+01
 32.88          3.50000e+01
 32.90          4.00000e+01
 32.92          4.00000e+01
 32.94          2.90000e+01
 32.96          4.00000e+01
 32.98          4.10000e+01
 33.00          4.10000e+01
 33.02          3.10000e+01
 33.04          3.50000e+01
 33.06          3.70000e+01
 33.08          3.50000e+01
 33.10          4.00000e+01
 33.12          3.20000e+01
 33.14          3.50000e+01
 33.16          3.40000e+01
 33.18          4.00000e+01
 33.20          3.80000e+01
 33.22          3.40000e+01
 33.24          4.00000e+01
 33.26          3.60000e+01
 33.28          3.20000e+01
 33.30          4.00000e+01
 33.32          4.10000e+01
 33.34          5.40000e+01
 33.36          4.10000e+01
 33.38          5.00000e+01
 33.40          4.00000e+01
 33.42          3.90000e+01
 33.44          4.00000e+01
 33.46          4.50000e+01
 33.48          4.00000e+01
 33.50          4.90000e+01
 33.52          4.90000e+01
 33.54          5.30000e+01
 33.56          3.70000e+01
 33.58          3.70000e+01
 33.60          3.30000e+01
 33.62          3.70000e+01
 33.64          3.60000e+01
 33.66          4.30000e+01
 33.68          3.30000e+01
 33.70          3.20000e+01
 33.72          4.70000e+01
 33.74          5.60000e+01
 33.76          3.80000e+01
 33.78          3.70000e+01
 33.80          4.70000e+01
 33.82          4.20000e+01
 33.84          4.00000e+01
 33.86          4.00000e+01
 33.88          4.30000e+01
 33.90          4.10000e+01
 33.92          3.10000e+01
 33.94          4.40000e+01
 33.96          3.40000e+01
 33.98          3.50000e+01
 34.00          4.50000e+01
 34.02          4.30000e+01
 34.04          5.20000e+01
 34.06          4.40000e+01
 34.08          4.70000e+01
 34.10          5.50000e+01
 34.12          3.40000e+01
 34.14          3.40000e+01
 34.16          3.40000e+01
 34.18          3.70000e+01
 34.20          4.20000e+01
 34.22          5.50000e+01
 34.24          4.10000e+01
 34.26          4.40000e+01
 34.28          3.40000e+01
 34.30          3.40000e+01
 34.32          3.10000e+01
 34.34          3.80000e+01
 34.36          5.40000e+01
 34.38          5.00000e+01
 34.40          4.20000e+01
 34.42          3.60000e+01
 34.44          4.80000e+01
 34.46          4.30000e+01
 34.48          4.60000e+01
 34.50          4.10000e+01
 34.52          3.60000e+01
 34.54          2.90000e+01
 34.56          3.20000e+01
 34.58          3.00000e+01
 34.60          6.10000e+01
 34.62          3.20000e+01
 34.64          5.00000e+01
 34.66          6.20000e+01
 34.68          5.20000e+01
 34.70          3.70000e+01
 34.72          3.10000e+01
 34.74          4.20000e+01
 34.76          4.30000e+01
 34.78          3.50000e+01
 34.80          4.10000e+01
 34.82          3.70000e+01
 34.84          3.90000e+01
 34.86          4.20000e+01
 34.88          3.80000e+01
 34.90          3.50000e+01
 34.92          4.60000e+01
 34.94          4.90000e+01
 34.96          4.00000e+01
 34.98          5.50000e+01
 35.00          4.40000e+01
 35.02          2.80000e+01
 35.04          5.10000e+01
 35.06          4.30000e+01
 35.08          4.00000e+01
 35.10          3.90000e+01
 35.12          3.70000e+01
 35.14          4.20000e+01
 35.16          4.20000e+01
 35.18          3.00000e+01
 35.20          3.80000e+01
 35.22          4.50000e+01
 35.24          4.30000e+01
 35.26          3.90000e+01
 35.28          3.90000e+01
 35.30          2.90000e+01
 35.32          2.80000e+01
 35.34          4.30000e+01
 35.36          4.90000e+01
 35.38          5.10000e+01
 35.40          5.20000e+01
 35.42          4.40000e+01
 35.44          5.30000e+01
 35.46          4.20000e+01
 35.48          3.50000e+01
 35.50          3.80000e+01
 35.52          4.30000e+01
 35.54          4.40000e+01
 35.56          3.80000e+01
 35.58          4.20000e+01
 35.60          3.50000e+01
 35.62          3.10000e+01
 35.64          3.90000e+01
 35.66          4.50000e+01
 35.68          2.40000e+01
 35.70          2.30000e+01
 35.72          3.70000e+01
 35.74          5.90000e+01
 35.76          5.20000e+01
 35.78          3.30000e+01
 35.80          3.00000e+01
 35.82          4.60000e+01
 35.84          4.90000e+01
 35.86          3.80000e+01
 35.88          3.70000e+01
 35.90          4.20000e+01
 35.92          3.00000e+01
 35.94          3.70000e+01
 35.96          4.60000e+01
 35.98          3.80000e+01
 36.00          5.30000e+01
 36.02          4.30000e+01
 36.04          4.80000e+01
 36.06          4.80000e+01
 36.08          4.10000e+01
 36.10          3.30000e+01
 36.12          3.60000e+01
 36.14          3.40000e+01
 36.16          4.30000e+01
 36.18          3.30000e+01
 36.20          4.20000e+01
 36.22          3.90000e+01
 36.24          3.30000e+01
 36.26          4.00000e+01
 36.28          3.40000e+01
 36.30          2.60000e+01
 36.32          4.00000e+01
 36.34          2.70000e+01
 36.36          2.90000e+01
 36.38          3.10000e+01
 36.40          3.90000e+01
 36.42          3.20000e+01
 36.44          2.50000e+01
 36.46          3.80000e+01
 36.48          3.70000e+01
 36.50          4.50000e+01
 36.52          3.40000e+01
 36.54          2.50000e+01
 36.56          2.90000e+01
 36.58          3.40000e+01
 36.60          4.30000e+01
 36.62          3.70000e+01
 36.64          3.60000e+01
 36.66          2.20000e+01
 36.68          3.30000e+01
 36.70          4.20000e+01
 36.72          4.30000e+01
 36.74          4.60000e+01
 36.76          4.10000e+01
 36.78          4.10000e+01
 36.80          4.40000e+01
 36.82          4.60000e+01
 36.84          3.70000e+01
 36.86          5.20000e+01
 36.88          4.70000e+01
 36.90          4.10000e+01
 36.92          2.70000e+01
 36.94          3.40000e+01
 36.96          4.30000e+01
 36.98          4.60000e+01
 37.00          4.40000e+01
 37.02          3.40000e+01
 37.04          3.60000e+01
 37.06          2.60000e+01
 37.08          2.50000e+01
 37.10          4.40000e+01
 37.12          3.60000e+01
 37.14          4.70000e+01
 37.16          4.90000e+01
 37.18          3.60000e+01
 37.20          3.70000e+01
 37.22          4.30000e+01
 37.24          4.90000e+01
 37.26          4.00000e+01
 37.28          2.90000e+01
 37.30          3.90000e+01
 37.32          5.50000e+01
 37.34          4.00000e+01
 37.36          3.90000e+01
 37.38          4.00000e+01
 37.40          3.70000e+01
 37.42          4.10000e+01
 37.44          6.00000e+01
 37.46          6.00000e+01
 37.48          4.60000e+01
 37.50          3.00000e+01
 37.52          3.40000e+01
 37.54          4.10000e+01
 37.56          4.50000e+01
 37.58          4.70000e+01
 37.60          3.80000e+01
 37.62          3.50000e+01
 37.64          4.40000e+01
 37.66          5.40000e+01
 37.68          6.70000e+01
 37.70          5.40000e+01
 37.72          5.10000e+01
 37.74          4.20000e+01
 37.76          3.60000e+01
 37.78          2.50000e+01
 37.80          4.60000e+01
 37.82          5.60000e+01
 37.84          4.80000e+01
 37.86          5.10000e+01
 37.88          4.70000e+01
 37.90          3.50000e+01
 37.92          4.30000e+01
 37.94          3.80000e+01
 37.96          3.80000e+01
 37.98          3.50000e+01
 38.00          4.10000e+01
 38.02          3.70000e+01
 38.04          3.40000e+01
 38.06          3.50000e+01
 38.08          3.80000e+01
 38.10          4.00000e+01
 38.12          4.50000e+01
 38.14          4.20000e+01
 38.16          3.30000e+01
 38.18          2.40000e+01
 38.20          3.20000e+01
 38.22          4.90000e+01
 38.24          3.70000e+01
 38.26          3.80000e+01
 38.28          4.20000e+01
 38.30          3.90000e+01
 38.32          3.80000e+01
 38.34          3.30000e+01
 38.36          4.60000e+01
 38.38          4.40000e+01
 38.40          4.90000e+01
 38.42          4.20000e+01
 38.44          2.90000e+01
 38.46          4.20000e+01
 38.48          3.90000e+01
 38.50          2.90000e+01
 38.52          4.70000e+01
 38.54          4.60000e+01
 38.56          3.60000e+01
 38.58          3.70000e+01
 38.60          3.90000e+01
 38.62          4.20000e+01
 38.64          5.60000e+01
 38.66          5.10000e+01
 38.68          3.40000e+01
 38.70          3.60000e+01
 38.72          3.20000e+01
 38.74          2.90000e+01
 38.76          2.30000e+01
 38.78          3.90000e+01
 38.80          3.50000e+01
 38.82          4.30000e+01
 38.84          4.60000e+01
 38.86          3.80000e+01
 38.88          3.00000e+01
 38.90          3.30000e+01
 38.92          3.50000e+01
 38.94          4.40000e+01
 38.96          4.40000e+01
 38.98          2.90000e+01
 39.00          4.60000e+01
 39.02          5.30000e+01
 39.04          6.10000e+01
 39.06          4.20000e+01
 39.08          3.40000e+01
 39.10          3.70000e+01
 39.12          5.00000e+01
 39.14          2.70000e+01
 39.16          4.90000e+01
 39.18          4.90000e+01
 39.20          4.60000e+01
 39.22          3.10000e+01
 39.24          3.80000e+01
 39.26          2.90000e+01
 39.28          2.70000e+01
 39.30          3.80000e+01
 39.32          5.00000e+01
 39.34          4.70000e+01
 39.36          4.20000e+01
 39.38          2.90000e+01
 39.40          2.80000e+01
 39.42          3.40000e+01
 39.44          3.50000e+01
 39.46          4.70000e+01
 39.48          4.50000e+01
 39.50          3.90000e+01
 39.52          2.20000e+01
 39.54          4.90000e+01
 39.56          4.30000e+01
 39.58          3.40000e+01
 39.60          5.00000e+01
 39.62          3.20000e+01
 39.64          4.90000e+01
 39.66          4.90000e+01
 39.68          3.70000e+01
 39.70          3.40000e+01
 39.72          4.60000e+01
 39.74          3.50000e+01
 39.76          5.00000e+01
 39.78          3.20000e+01
 39.80          4.40000e+01
 39.82          3.20000e+01
 39.84          3.10000e+01
 39.86          3.30000e+01
 39.88          3.20000e+01
 39.90          4.50000e+01
 39.92          4.90000e+01
 39.94          3.60000e+01
 39.96          4.20000e+01
 39.98          5.40000e+01
 40.00          3.00000e+01
 40.02          2.90000e+01
 40.04          3.90000e+01
 40.06          4.20000e+01
 40.08          3.30000e+01
 40.10          2.10000e+01
 40.12          2.90000e+01
 40.14          3.60000e+01
 40.16          4.10000e+01
 40.18          3.20000e+01
 40.20          3.50000e+01
 40.22          4.50000e+01
 40.24          4.10000e+01
 40.26          2.30000e+01
 40.28          2.60000e+01
 40.30          3.10000e+01
 40.32          3.00000e+01
 40.34          3.50000e+01
 40.36          3.80000e+01
 40.38          5.00000e+01
 40.40          3.80000e+01
 40.42          3.20000e+01
 40.44          4.00000e+01
 40.46          3.70000e+01
 40.48          3.90000e+01
 40.50          3.00000e+01
 40.52          2.60000e+01
 40.54          3.40000e+01
 40.56          2.70000e+01
 40.58          3.20000e+01
 40.60          3.70000e+01
 40.62          2.90000e+01
 40.64          4.10000e+01
 40.66          3.30000e+01
 40.68          3.70000e+01
 40.70          4.60000e+01
 40.72          4.40000e+01
 40.74          3.80000e+01
 40.76          3.40000e+01
 40.78          3.30000e+01
 40.80          3.40000e+01
 40.82          3.30000e+01
 40.84          4.00000e+01
 40.86          4.10000e+01
 40.88          4.20000e+01
 40.90          3.60000e+01
 40.92          4.60000e+01
 40.94          4.00000e+01
 40.96          3.50000e+01
 40.98          3.30000e+01
 41.00          4.50000e+01
 41.02          4.80000e+01
 41.04          4.50000e+01
 41.06          4.30000e+01
 41.08          4.20000e+01
 41.10          6.60000e+01
 41.12          4.50000e+01
 41.14          2.80000e+01
 41.16          2.50000e+01
 41.18          3.10000e+01
 41.20          2.90000e+01
 41.22          3.90000e+01
 41.24          3.30000e+01
 41.26          4.00000e+01
 41.28          3.00000e+01
 41.30          3.20000e+01
 41.32          4.40000e+01
 41.34          4.70000e+01
 41.36          4.20000e+01
 41.38          3.30000e+01
 41.40          3.40000e+01
 41.42          3.80000e+01
 41.44          3.10000e+01
 41.46          2.30000e+01
 41.48          4.00000e+01
 41.50          3.80000e+01
 41.52          4.80000e+01
 41.54          3.30000e+01
 41.56          3.10000e+01
 41.58          2.70000e+01
 41.60          3.20000e+01
 41.62          3.60000e+01
 41.64          3.60000e+01
 41.66          3.90000e+01
 41.68          3.60000e+01
 41.70          3.40000e+01
 41.72          3.30000e+01
 41.74          3.00000e+01
 41.76          3.30000e+01
 41.78          2.40000e+01
 41.80          3.50000e+01
 41.82          4.80000e+01
 41.84          4.70000e+01
 41.86          4.40000e+01
 41.88          4.30000e+01
 41.90          3.40000e+01
 41.92          4.10000e+01
 41.94          4.00000e+01
 41.96          3.00000e+01
 41.98          2.90000e+01
 42.00          3.00000e+01
 42.02          3.80000e+01
 42.04          3.20000e+01
 42.06          2.80000e+01
 42.08          3.20000e+01
 42.10          4.10000e+01
 42.12          3.40000e+01
 42.14          4.50000e+01
 42.16          3.50000e+01
 42.18          2.50000e+01
 42.20          3.80000e+01
 42.22          4.30000e+01
 42.24          4.80000e+01
 42.26          3.60000e+01
 42.28          3.90000e+01
 42.30          4.40000e+01
 42.32          2.90000e+01
 42.34          3.10000e+01
 42.36          4.60000e+01
 42.38          2.60000e+01
 42.40          4.80000e+01
 42.42          4.80000e+01
 42.44          3.60000e+01
 42.46          4.50000e+01
 42.48          3.60000e+01
 42.50          5.80000e+01
 42.52          4.40000e+01
 42.54          2.90000e+01
 42.56          3.90000e+01
 42.58          3.00000e+01
 42.60          3.10000e+01
 42.62          2.20000e+01
 42.64          3.10000e+01
 42.66          2.30000e+01
 42.68          2.60000e+01
 42.70          3.20000e+01
 42.72          5.70000e+01
 42.74          5.30000e+01
 42.76          3.70000e+01
 42.78          3.70000e+01
 42.80          4.20000e+01
 42.82          2.70000e+01
 42.84          3.10000e+01
 42.86          4.40000e+01
 42.88          3.90000e+01
 42.90          4.10000e+01
 42.92          3.30000e+01
 42.94          3.50000e+01
 42.96          3.30000e+01
 42.98          4.30000e+01
 43.00          3.70000e+01
 43.02          3.70000e+01
 43.04          3.70000e+01
 43.06          3.10000e+01
 43.08          3.00000e+01
 43.10          3.20000e+01
 43.12          3.90000e+01
 43.14          3.30000e+01
 43.16          3.40000e+01
 43.18          2.10000e+01
 43.20          3.20000e+01
 43.22          3.40000e+01
 43.24          3.30000e+01
 43.26          3.00000e+01
 43.28          3.00000e+01
 43.30          3.90000e+01
 43.32          4.50000e+01
 43.34          4.70000e+01
 43.36          4.30000e+01
 43.38          3.50000e+01
 43.40          5.10000e+01
 43.42          3.50000e+01
 43.44          4.30000e+01
 43.46          3.30000e+01
 43.48          5.00000e+01
 43.50          4.20000e+01
 43.52          3.20000e+01
 43.54          3.70000e+01
 43.56          3.90000e+01
 43.58          4.10000e+01
 43.60          5.90000e+01
 43.62          4.60000e+01
 43.64          3.20000e+01
 43.66          3.90000e+01
 43.68          3.60000e+01
 43.70          3.90000e+01
 43.72          4.80000e+01
 43.74          3.10000e+01
 43.76          3.60000e+01
 43.78          3.70000e+01
 43.80          4.10000e+01
 43.82          3.20000e+01
 43.84          2.70000e+01
 43.86          4.60000e+01
 43.88          5.00000e+01
 43.90          3.90000e+01
 43.92          3.80000e+01
 43.94          3.40000e+01
 43.96          3.50000e+01
 43.98          3.60000e+01
 44.00          2.20000e+01
 44.02          2.10000e+01
 44.04          3.40000e+01
 44.06          3.60000e+01
 44.08          5.90000e+01
 44.10          5.40000e+01
 44.12          3.20000e+01
 44.14          3.10000e+01
 44.16          4.30000e+01
 44.18          4.30000e+01
 44.20          3.50000e+01
 44.22          3.50000e+01
 44.24          3.70000e+01
 44.26          3.50000e+01
 44.28          3.40000e+01
 44.30          3.90000e+01
 44.32          3.60000e+01
 44.34          4.10000e+01
 44.36          3.70000e+01
 44.38          3.80000e+01
 44.40          4.00000e+01
 44.42          3.20000e+01
 44.44          2.80000e+01
 44.46          3.60000e+01
 44.48          2.40000e+01
 44.50          2.20000e+01
 44.52          2.50000e+01
 44.54          2.90000e+01
 44.56          3.70000e+01
 44.58          3.50000e+01
 44.60          3.30000e+01
 44.62          3.60000e+01
 44.64          4.60000e+01
 44.66          3.20000e+01
 44.68          3.40000e+01
 44.70          3.80000e+01
 44.72          3.40000e+01
 44.74          3.00000e+01
 44.76          3.10000e+01
 44.78          4.60000e+01
 44.80          3.70000e+01
 44.82          3.10000e+01
 44.84          3.00000e+01
 44.86          3.20000e+01
 44.88          3.10000e+01
 44.90          3.40000e+01
 44.92          3.70000e+01
 44.94          4.00000e+01
 44.96          3.40000e+01
 44.98          2.20000e+01
 45.00          3.90000e+01
 45.02          2.90000e+01
 45.04          4.10000e+01
 45.06          3.40000e+01
 45.08          4.40000e+01
 45.10          4.20000e+01
 45.12          4.10000e+01
 45.14          4.30000e+01
 45.16          4.80000e+01
 45.18          3.00000e+01
 45.20          2.90000e+01
 45.22          4.20000e+01
 45.24          2.70000e+01
 45.26          3.70000e+01
 45.28          3.10000e+01
 45.30          3.30000e+01
 45.32          3.00000e+01
 45.34          3.10000e+01
 45.36          5.30000e+01
 45.38          4.00000e+01
 45.40          4.10000e+01
 45.42          3.50000e+01
 45.44          3.30000e+01
 45.46          3.60000e+01
 45.48          3.40000e+01
 45.50          3.50000e+01
 45.52          3.70000e+01
 45.54          3.90000e+01
 45.56          3.20000e+01
 45.58          4.10000e+01
 45.60          3.50000e+01
 45.62          4.30000e+01
 45.64          4.30000e+01
 45.66          3.40000e+01
 45.68          3.20000e+01
 45.70          3.00000e+01
 45.72          2.60000e+01
 45.74          2.70000e+01
 45.76          2.70000e+01
 45.78          2.30000e+01
 45.80          2.80000e+01
 45.82          3.20000e+01
 45.84          2.80000e+01
 45.86          2.90000e+01
 45.88          4.20000e+01
 45.90          4.00000e+01
 45.92          2.50000e+01
 45.94          2.50000e+01
 45.96          2.80000e+01
 45.98          4.50000e+01
 46.00          4.10000e+01
 46.02          3.50000e+01
 46.04          3.20000e+01
 46.06          3.50000e+01
 46.08          4.00000e+01
 46.10          3.60000e+01
 46.12          3.70000e+01
 46.14          3.40000e+01
 46.16          3.40000e+01
 46.18          3.70000e+01
 46.20          4.20000e+01
 46.22          4.50000e+01
 46.24          4.20000e+01
 46.26          3.70000e+01
 46.28          2.50000e+01
 46.30          2.90000e+01
 46.32          4.90000e+01
 46.34          3.30000e+01
 46.36          4.20000e+01
 46.38          2.80000e+01
 46.40          2.70000e+01
 46.42          3.30000e+01
 46.44          2.80000e+01
 46.46          2.80000e+01
 46.48          3.40000e+01
 46.50          2.70000e+01
 46.52          2.00000e+01
 46.54          3.00000e+01
 46.56          4.10000e+01
 46.58          3.90000e+01
 46.60          2.90000e+01
 46.62          3.10000e+01
 46.64          3.20000e+01
 46.66          3.10000e+01
 46.68          2.70000e+01
 46.70          3.70000e+01
 46.72          4.90000e+01
 46.74          3.20000e+01
 46.76          4.20000e+01
 46.78          4.30000e+01
 46.80          4.00000e+01
 46.82          3.70000e+01
 46.84          3.70000e+01
 46.86          3.90000e+01
 46.88          3.00000e+01
 46.90          3.20000e+01
 46.92          3.70000e+01
 46.94          3.60000e+01
 46.96          3.50000e+01
 46.98          3.80000e+01
 47.00          2.80000e+01
 47.02          3.10000e+01
 47.04          3.20000e+01
 47.06          3.40000e+01
 47.08          3.20000e+01
 47.10          2.50000e+01
 47.12          3.30000e+01
 47.14          3.40000e+01
 47.16          3.40000e+01
 47.18          2.50000e+01
 47.20          2.40000e+01
 47.22          3.30000e+01
 47.24          2.90000e+01
 47.26          4.00000e+01
 47.28          3.70000e+01
 47.30          3.60000e+01
 47.32          4.70000e+01
 47.34          3.50000e+01
 47.36          2.70000e+01
 47.38          2.70000e+01
 47.40          3.00000e+01
 47.42          3.20000e+01
 47.44          2.50000e+01
 47.46          2.50000e+01
 47.48          2.20000e+01
 47.50          2.00000e+01
 47.52          2.90000e+01
 47.54          4.20000e+01
 47.56          3.80000e+01
 47.58          2.50000e+01
 47.60          3.00000e+01
 47.62          3.40000e+01
 47.64          4.20000e+01
 47.66          2.90000e+01
 47.68          2.90000e+01
 47.70          2.80000e+01
 47.72          2.90000e+01
 47.74          4.10000e+01
 47.76          3.70000e+01
 47.78          3.20000e+01
 47.80          2.50000e+01
 47.82          3.00000e+01
 47.84          4.40000e+01
 47.86          2.80000e+01
 47.88          2.40000e+01
 47.90          2.80000e+01
 47.92          4.10000e+01
 47.94          4.60000e+01
 47.96          4.30000e+01
 47.98          3.40000e+01
 48.00          2.70000e+01
 48.02          2.40000e+01
 48.04          2.50000e+01
 48.06          3.30000e+01
 48.08          3.70000e+01
 48.10          2.90000e+01
 48.12          2.40000e+01
 48.14          3.40000e+01
 48.16          3.20000e+01
 48.18          2.40000e+01
 48.20          3.90000e+01
 48.22          3.70000e+01
 48.24          2.90000e+01
 48.26          2.90000e+01
 48.28          3.40000e+01
 48.30          2.50000e+01
 48.32          3.10000e+01
 48.34          2.50000e+01
 48.36          3.10000e+01
 48.38          2.60000e+01
 48.40          3.20000e+01
 48.42          3.50000e+01
 48.44          2.30000e+01
 48.46          2.10000e+01
 48.48          1.80000e+01
 48.50          2.60000e+01
 48.52          2.20000e+01
 48.54          2.50000e+01
 48.56          3.80000e+01
 48.58          3.80000e+01
 48.60          3.50000e+01
 48.62          2.70000e+01
 48.64          3.20000e+01
 48.66          2.80000e+01
 48.68          2.60000e+01
 48.70          4.40000e+01
 48.72          3.50000e+01
 48.74          3.00000e+01
 48.76          3.30000e+01
 48.78          3.80000e+01
 48.80          3.40000e+01
 48.82          4.40000e+01
 48.84          3.80000e+01
 48.86          2.90000e+01
 48.88          4.10000e+01
 48.90          3.10000e+01
 48.92          3.40000e+01
 48.94          3.00000e+01
 48.96          3.40000e+01
 48.98          3.80000e+01
 49.00          3.70000e+01
 49.02          3.40000e+01
 49.04          2.60000e+01
 49.06          2.70000e+01
 49.08          2.90000e+01
 49.10          3.90000e+01
 49.12          3.60000e+01
 49.14          3.90000e+01
 49.16          4.50000e+01
 49.18          2.90000e+01
 49.20          2.70000e+01
 49.22          3.40000e+01
 49.24          3.50000e+01
 49.26          3.70000e+01
 49.28          3.40000e+01
 49.30          3.90000e+01
 49.32          4.70000e+01
 49.34          2.90000e+01
 49.36          1.90000e+01
 49.38          2.90000e+01
 49.40          3.30000e+01
 49.42          3.30000e+01
 49.44          1.90000e+01
 49.46          2.00000e+01
 49.48          3.60000e+01
 49.50          3.30000e+01
 49.52          2.50000e+01
 49.54          3.00000e+01
 49.56          3.00000e+01
 49.58          3.60000e+01
 49.60          2.40000e+01
 49.62          2.20000e+01
 49.64          3.20000e+01
 49.66          3.00000e+01
 49.68          3.60000e+01
 49.70          3.60000e+01
 49.72          3.00000e+01
 49.74          4.30000e+01
 49.76          3.00000e+01
 49.78          2.50000e+01
 49.80          4.00000e+01
 49.82          3.90000e+01
 49.84          2.90000e+01
 49.86          3.60000e+01
 49.88          3.90000e+01
 49.90          3.20000e+01
 49.92          2.50000e+01
 49.94          3.00000e+01
 49.96          3.60000e+01
 49.98          2.40000e+01
 50.00          3.50000e+01
 50.02          2.50000e+01
 50.04          2.90000e+01
 50.06          3.70000e+01
 50.08          3.10000e+01
 50.10          4.10000e+01
 50.12          4.10000e+01
 50.14          2.70000e+01
 50.16          2.10000e+01
 50.18          3.20000e+01
 50.20          4.00000e+01
 50.22          4.70000e+01
 50.24          3.70000e+01
 50.26          2.50000e+01
 50.28          2.20000e+01
 50.30          3.30000e+01
 50.32          3.00000e+01
 50.34          3.40000e+01
 50.36          2.30000e+01
 50.38          3.20000e+01
 50.40          3.20000e+01
 50.42          3.30000e+01
 50.44          2.90000e+01
 50.46          3.30000e+01
 50.48          4.30000e+01
 50.50          3.10000e+01
 50.52          2.90000e+01
 50.54          3.60000e+01
 50.56          3.40000e+01
 50.58          2.60000e+01
 50.60          3.20000e+01
 50.62          3.80000e+01
 50.64          3.40000e+01
 50.66          2.00000e+01
 50.68          3.60000e+01
 50.70          3.10000e+01
 50.72          4.40000e+01
 50.74          4.00000e+01
 50.76          3.40000e+01
 50.78          2.90000e+01
 50.80          3.30000e+01
 50.82          2.50000e+01
 50.84          1.90000e+01
 50.86          2.80000e+01
 50.88          3.30000e+01
 50.90          2.90000e+01
 50.92          3.60000e+01
 50.94          2.50000e+01
 50.96          2.80000e+01
 50.98          3.30000e+01
 51.00          2.70000e+01
 51.02          2.70000e+01
 51.04          2.50000e+01
 51.06          3.00000e+01
 51.08          3.70000e+01
 51.10          2.90000e+01
 51.12          4.20000e+01
 51.14          4.10000e+01
 51.16          3.30000e+01
 51.18          2.40000e+01
 51.20          2.50000e+01
 51.22          2.90000e+01
 51.24          3.50000e+01
 51.26          3.20000e+01
 51.28          2.80000e+01
 51.30          2.10000e+01
 51.32          3.60000e+01
 51.34          2.40000e+01
 51.36          2.50000e+01
 51.38          1.70000e+01
 51.40          2.30000e+01
 51.42          3.20000e+01
 51.44          2.90000e+01
 51.46          4.10000e+01
 51.48          3.90000e+01
 51.50          2.30000e+01
 51.52          2.20000e+01
 51.54          3.20000e+01
 51.56          3.70000e+01
 51.58          4.40000e+01
 51.60          3.30000e+01
 51.62          3.00000e+01
 51.64          2.50000e+01
 51.66          2.40000e+01
 51.68          3.20000e+01
 51.70          2.20000e+01
 51.72          2.40000e+01
 51.74          1.90000e+01
 51.76          3.60000e+01
 51.78          3.00000e+01
 51.80          2.90000e+01
 51.82          2.90000e+01
 51.84          3.20000e+01
 51.86          2.50000e+01
 51.88          2.80000e+01
 51.90          4.10000e+01
 51.92          2.00000e+01
 51.94          2.30000e+01
 51.96          3.30000e+01
 51.98          4.80000e+01
 52.00          2.80000e+01
 52.02          2.40000e+01
 52.04          2.90000e+01
 52.06          3.90000e+01
 52.08          4.60000e+01
 52.10          4.50000e+01
 52.12          2.90000e+01
 52.14          3.10000e+01
 52.16          2.70000e+01
 52.18          3.50000e+01
 52.20          3.10000e+01
 52.22          3.10000e+01
 52.24          3.40000e+01
 52.26          2.40000e+01
 52.28          3.70000e+01
 52.30          3.10000e+01
 52.32          3.10000e+01
 52.34          3.40000e+01
 52.36          3.50000e+01
 52.38          3.00000e+01
 52.40          2.80000e+01
 52.42          3.50000e+01
 52.44          3.80000e+01
 52.46          3.10000e+01
 52.48          2.50000e+01
 52.50          3.70000e+01
 52.52          3.40000e+01
 52.54          3.20000e+01
 52.56          3.00000e+01
 52.58          2.00000e+01
 52.60          2.30000e+01
 52.62          1.90000e+01
 52.64          2.60000e+01
 52.66          1.70000e+01
 52.68          2.70000e+01
 52.70          3.20000e+01
 52.72          2.50000e+01
 52.74          3.00000e+01
 52.76          3.70000e+01
 52.78          3.40000e+01
 52.80          4.50000e+01
 52.82          4.50000e+01
 52.84          3.10000e+01
 52.86          2.40000e+01
 52.88          4.40000e+01
 52.90          2.90000e+01
 52.92          2.40000e+01
 52.94          2.50000e+01
 52.96          3.40000e+01
 52.98          3.30000e+01
 53.00          2.80000e+01
 53.02          2.80000e+01
 53.04          4.10000e+01
 53.06          5.00000e+01
 53.08          2.20000e+01
 53.10          2.70000e+01
 53.12          3.60000e+01
 53.14          3.10000e+01
 53.16          2.60000e+01
 53.18          2.00000e+01
 53.20          4.80000e+01
 53.22          3.70000e+01
 53.24          3.30000e+01
 53.26          3.60000e+01
 53.28          2.40000e+01
 53.30          2.90000e+01
 53.32          3.70000e+01
 53.34          2.90000e+01
 53.36          2.00000e+01
 53.38          2.10000e+01
 53.40          3.70000e+01
 53.42          4.00000e+01
 53.44          2.20000e+01
 53.46          2.00000e+01
 53.48          3.30000e+01
 53.50          2.40000e+01
 53.52          3.00000e+01
 53.54          3.30000e+01
 53.56          2.60000e+01
 53.58          2.40000e+01
 53.60          2.90000e+01
 53.62          2.80000e+01
 53.64          3.30000e+01
 53.66          3.20000e+01
 53.68          4.00000e+01
 53.70          3.10000e+01
 53.72          2.30000e+01
 53.74          2.90000e+01
 53.76          2.70000e+01
 53.78          2.50000e+01
 53.80          4.10000e+01
 53.82          2.20000e+01
 53.84          3.20000e+01
 53.86          2.30000e+01
 53.88          3.20000e+01
 53.90          3.10000e+01
 53.92          2.70000e+01
 53.94          3.40000e+01
 53.96          3.80000e+01
 53.98          3.50000e+01
 54.00          2.70000e+01
 54.02          2.20000e+01
 54.04          2.30000e+01
 54.06          2.40000e+01
 54.08          2.90000e+01
 54.10          3.10000e+01
 54.12          3.00000e+01
 54.14          3.30000e+01
 54.16          3.80000e+01
 54.18          2.90000e+01
 54.20          3.00000e+01
 54.22          3.20000e+01
 54.24          4.00000e+01
 54.26          2.60000e+01
 54.28          3.10000e+01
 54.30          4.80000e+01
 54.32          3.00000e+01
 54.34          2.60000e+01
 54.36          3.20000e+01
 54.38          3.00000e+01
 54.40          3.00000e+01
 54.42          2.00000e+01
 54.44          3.10000e+01
 54.46          2.90000e+01
 54.48          2.00000e+01
 54.50          1.90000e+01
 54.52          2.90000e+01
 54.54          3.20000e+01
 54.56          3.80000e+01
 54.58          2.70000e+01
 54.60          2.30000e+01
 54.62          3.00000e+01
 54.64          3.10000e+01
 54.66          2.80000e+01
 54.68          3.00000e+01
 54.70          4.50000e+01
 54.72          3.10000e+01
 54.74          3.40000e+01
 54.76          4.00000e+01
 54.78          3.20000e+01
 54.80          3.40000e+01
 54.82          3.40000e+01
 54.84          3.20000e+01
 54.86          2.70000e+01
 54.88          2.20000e+01
 54.90          3.40000e+01
 54.92          2.90000e+01
 54.94          4.00000e+01
 54.96          3.50000e+01
 54.98          3.40000e+01
 55.00          3.20000e+01
 55.02          4.00000e+01
 55.04          3.10000e+01
 55.06          2.40000e+01
 55.08          2.50000e+01
 55.10          2.30000e+01
 55.12          2.60000e+01
 55.14          3.00000e+01
 55.16          3.30000e+01
 55.18          2.40000e+01
 55.20          1.80000e+01
 55.22          3.30000e+01
 55.24          2.90000e+01
 55.26          3.20000e+01
 55.28          3.00000e+01
 55.30          2.20000e+01
 55.32          3.30000e+01
 55.34          2.60000e+01
 55.36          3.40000e+01
 55.38          3.00000e+01
 55.40          4.30000e+01
 55.42          2.40000e+01
 55.44          2.50000e+01
 55.46          2.90000e+01
 55.48          3.40000e+01
 55.50          3.20000e+01
 55.52          3.50000e+01
 55.54          2.80000e+01
 55.56          2.60000e+01
 55.58          3.10000e+01
 55.60          3.20000e+01
 55.62          2.10000e+01
 55.64          3.00000e+01
 55.66          2.50000e+01
 55.68          2.80000e+01
 55.70          2.80000e+01
 55.72          2.50000e+01
 55.74          2.80000e+01
 55.76          2.90000e+01
 55.78          3.40000e+01
 55.80          2.60000e+01
 55.82          3.80000e+01
 55.84          3.00000e+01
 55.86          2.50000e+01
 55.88          2.90000e+01
 55.90          3.30000e+01
 55.92          4.20000e+01
 55.94          3.90000e+01
 55.96          3.70000e+01
 55.98          4.00000e+01
 56.00          2.20000e+01
 56.02          2.70000e+01
 56.04          3.30000e+01
 56.06          2.60000e+01
 56.08          2.40000e+01
 56.10          2.00000e+01
 56.12          1.90000e+01
 56.14          1.40000e+01
 56.16          2.00000e+01
 56.18          2.40000e+01
 56.20          2.90000e+01
 56.22          2.80000e+01
 56.24          3.00000e+01
 56.26          1.60000e+01
 56.28          2.20000e+01
 56.30          3.80000e+01
 56.32          3.00000e+01
 56.34          2.80000e+01
 56.36          2.70000e+01
 56.38          1.80000e+01
 56.40          2.40000e+01
 56.42          3.70000e+01
 56.44          3.40000e+01
 56.46          3.10000e+01
 56.48          3.00000e+01
 56.50          2.10000e+01
 56.52          3.30000e+01
 56.54          3.60000e+01
 56.56          3.40000e+01
 56.58          3.80000e+01
 56.60          3.00000e+01
 56.62          2.30000e+01
 56.64          3.30000e+01
 56.66          2.50000e+01
 56.68          3.70000e+01
 56.70          3.30000e+01
 56.72          3.40000e+01
 56.74          2.70000e+01
 56.76          2.40000e+01
 56.78          2.10000e+01
 56.80          2.90000e+01
 56.82          2.90000e+01
 56.84          3.70000e+01
 56.86          2.90000e+01
 56.88          3.50000e+01
 56.90          3.20000e+01
 56.92          2.50000e+01
 56.94          2.30000e+01
 56.96          2.20000e+01
 56.98          2.60000e+01
 57.00          2.70000e+01
 57.02          2.50000e+01
 57.04          3.40000e+01
 57.06          3.20000e+01
 57.08          3.60000e+01
 57.10          3.10000e+01
 57.12          2.50000e+01
 57.14          2.50000e+01
 57.16          3.00000e+01
 57.18          2.70000e+01
 57.20          2.60000e+01
 57.22          2.80000e+01
 57.24          2.40000e+01
 57.26          2.30000e+01
 57.28          2.50000e+01
 57.30          3.10000e+01
 57.32          2.20000e+01
 57.34          2.40000e+01
 57.36          2.90000e+01
 57.38          3.10000e+01
 57.40          3.40000e+01
 57.42          4.00000e+01
 57.44          3.20000e+01
 57.46          2.40000e+01
 57.48          4.00000e+01
 57.50          3.70000e+01
 57.52          2.30000e+01
 57.54          2.20000e+01
 57.56          2.40000e+01
 57.58          2.60000e+01
 57.60          3.40000e+01
 57.62          1.50000e+01
 57.64          2.60000e+01
 57.66          2.30000e+01
 57.68          3.40000e+01
 57.70          4.40000e+01
 57.72          3.10000e+01
 57.74          3.40000e+01
 57.76          3.20000e+01
 57.78          2.20000e+01
 57.80          3.50000e+01
 57.82          4.60000e+01
 57.84          3.40000e+01
 57.86          2.30000e+01
 57.88          3.10000e+01
 57.90          2.80000e+01
 57.92          2.80000e+01
 57.94          1.90000e+01
 57.96          2.20000e+01
 57.98          2.80000e+01
 58.00          2.90000e+01
 58.02          2.30000e+01
 58.04          2.40000e+01
 58.06          2.90000e+01
 58.08          2.80000e+01
 58.10          2.40000e+01
 58.12          2.70000e+01
 58.14          3.00000e+01
 58.16          2.00000e+01
 58.18          2.60000e+01
 58.20          2.40000e+01
 58.22          2.30000e+01
 58.24          3.00000e+01
 58.26          3.20000e+01
 58.28          2.60000e+01
 58.30          2.20000e+01
 58.32          3.30000e+01
 58.34          1.90000e+01
 58.36          2.50000e+01
 58.38          1.90000e+01
 58.40          2.30000e+01
 58.42          3.60000e+01
 58.44          3.10000e+01
 58.46          3.00000e+01
 58.48          3.50000e+01
 58.50          3.00000e+01
 58.52          2.10000e+01
 58.54          2.40000e+01
 58.56          2.00000e+01
 58.58          2.00000e+01
 58.60          3.40000e+01
 58.62          4.50000e+01
 58.64          3.40000e+01
 58.66          2.50000e+01
 58.68          2.10000e+01
 58.70          2.30000e+01
 58.72          2.40000e+01
 58.74          2.90000e+01
 58.76          2.40000e+01
 58.78          2.10000e+01
 58.80          1.40000e+01
 58.82          2.40000e+01
 58.84          3.80000e+01
 58.86          4.00000e+01
 58.88          3.60000e+01
 58.90          2.40000e+01
 58.92          3.40000e+01
 58.94          2.50000e+01
 58.96          2.10000e+01
 58.98          2.60000e+01
 59.00          3.50000e+01
 59.02          2.90000e+01
 59.04          2.30000e+01
 59.06          2.50000e+01
 59.08          3.20000e+01
 59.10          4.20000e+01
 59.12          3.70000e+01
 59.14          3.30000e+01
 59.16          3.00000e+01
 59.18          2.80000e+01
 59.20          2.80000e+01
 59.22          2.20000e+01
 59.24          2.50000e+01
 59.26          2.50000e+01
 59.28          1.40000e+01
 59.30          1.90000e+01
 59.32          3.10000e+01
 59.34          3.90000e+01
 59.36          2.50000e+01
 59.38          2.30000e+01
 59.40          3.10000e+01
 59.42          2.70000e+01
 59.44          2.60000e+01
 59.46          2.70000e+01
 59.48          2.70000e+01
 59.50          3.30000e+01
 59.52          3.50000e+01
 59.54          3.20000e+01
 59.56          3.30000e+01
 59.58          2.20000e+01
 59.60          2.40000e+01
 59.62          2.60000e+01
 59.64          3.80000e+01
 59.66          2.80000e+01
 59.68          2.00000e+01
 59.70          2.20000e+01
 59.72          2.50000e+01
 59.74          2.90000e+01
 59.76          2.30000e+01
 59.78          2.50000e+01
 59.80          2.00000e+01
 59.82          2.00000e+01
 59.84          2.90000e+01
 59.86          2.80000e+01
 59.88          2.00000e+01
 59.90          2.10000e+01
 59.92          4.20000e+01
 59.94          3.10000e+01
 59.96          2.50000e+01
 59.98          4.60000e+01
 60.00          3.00000e+01
 60.02          2.10000e+01
 60.04          2.80000e+01
 60.06          3.20000e+01
 60.08          3.40000e+01
 60.10          3.80000e+01
 60.12          2.90000e+01
 60.14          3.40000e+01
 60.16          3.60000e+01
 60.18          3.60000e+01
 60.20          2.60000e+01
 60.22          3.00000e+01
 60.24          2.80000e+01
 60.26          2.10000e+01
 60.28          3.60000e+01
 60.30          3.50000e+01
 60.32          2.60000e+01
 60.34          1.90000e+01
 60.36          1.60000e+01
 60.38          2.40000e+01
 60.40          2.30000e+01
 60.42          2.90000e+01
 60.44          3.60000e+01
 60.46          3.20000e+01
 60.48          2.50000e+01
 60.50          3.20000e+01
 60.52          1.70000e+01
 60.54          1.80000e+01
 60.56          2.10000e+01
 60.58          2.40000e+01
 60.60          2.80000e+01
 60.62          3.20000e+01
 60.64          2.60000e+01
 60.66          2.90000e+01
 60.68          2.90000e+01
 60.70          2.10000e+01
 60.72          1.60000e+01
 60.74          2.80000e+01
 60.76          3.20000e+01
 60.78          3.00000e+01
 60.80          1.90000e+01
 60.82          2.90000e+01
 60.84          4.70000e+01
 60.86          3.10000e+01
 60.88          3.20000e+01
 60.90          4.30000e+01
 60.92          4.50000e+01
 60.94          2.90000e+01
 60.96          2.90000e+01
 60.98          2.60000e+01
 61.00          3.50000e+01
 61.02          2.40000e+01
 61.04          3.20000e+01
 61.06          2.80000e+01
 61.08          2.90000e+01
 61.10          1.60000e+01
 61.12          1.70000e+01
 61.14          2.20000e+01
 61.16          2.70000e+01
 61.18          2.50000e+01
 61.20          3.20000e+01
 61.22          4.50000e+01
 61.24          3.40000e+01
 61.26          2.80000e+01
 61.28          2.90000e+01
 61.30          2.70000e+01
 61.32          3.30000e+01
 61.34          1.60000e+01
 61.36          2.40000e+01
 61.38          4.10000e+01
 61.40          2.60000e+01
 61.42          2.20000e+01
 61.44          2.30000e+01
 61.46          3.30000e+01
 61.48          2.60000e+01
 61.50          2.70000e+01
 61.52          3.10000e+01
 61.54          2.30000e+01
 61.56          2.50000e+01
 61.58          2.50000e+01
 61.60          2.40000e+01
 61.62          1.50000e+01
 61.64          2.10000e+01
 61.66          2.90000e+01
 61.68          2.70000e+01
 61.70          2.10000e+01
 61.72          2.60000e+01
 61.74          2.90000e+01
 61.76          2.60000e+01
 61.78          3.50000e+01
 61.80          3.90000e+01
 61.82          2.80000e+01
 61.84          3.90000e+01
 61.86          3.70000e+01
 61.88          3.40000e+01
 61.90          3.40000e+01
 61.92          3.10000e+01
 61.94          2.90000e+01
 61.96          3.50000e+01
 61.98          2.60000e+01
 62.00          2.20000e+01
 62.02          2.10000e+01
 62.04          2.80000e+01
 62.06          2.90000e+01
 62.08          3.00000e+01
 62.10          3.40000e+01
 62.12          3.10000e+01
 62.14          2.50000e+01
 62.16          2.20000e+01
 62.18          1.60000e+01
 62.20          2.80000e+01
 62.22          3.20000e+01
 62.24          2.30000e+01
 62.26          3.00000e+01
 62.28          2.40000e+01
 62.30          2.40000e+01
 62.32          2.00000e+01
 62.34          1.00000e+01
 62.36          1.90000e+01
 62.38          2.50000e+01
 62.40          3.20000e+01
 62.42          2.80000e+01
 62.44          2.60000e+01
 62.46          2.40000e+01
 62.48          3.00000e+01
 62.50          3.80000e+01
 62.52          4.20000e+01
 62.54          2.80000e+01
 62.56          2.50000e+01
 62.58          2.00000e+01
 62.60          3.10000e+01
 62.62          1.80000e+01
 62.64          2.70000e+01
 62.66          2.70000e+01
 62.68          2.10000e+01
 62.70          1.60000e+01
 62.72          1.50000e+01
 62.74          2.00000e+01
 62.76          1.60000e+01
 62.78          2.50000e+01
 62.80          3.60000e+01
 62.82          2.80000e+01
 62.84          2.00000e+01
 62.86          2.70000e+01
 62.88          2.10000e+01
 62.90          2.80000e+01
 62.92          1.90000e+01
 62.94          2.20000e+01
 62.96          2.50000e+01
 62.98          3.10000e+01
 63.00          2.30000e+01
 63.02          2.80000e+01
 63.04          1.90000e+01
 63.06          2.90000e+01
 63.08          3.10000e+01
 63.10          2.70000e+01
 63.12          2.20000e+01
 63.14          2.60000e+01
 63.16          2.30000e+01
 63.18          1.80000e+01
 63.20          1.70000e+01
 63.22          2.10000e+01
 63.24          2.50000e+01
 63.26          3.20000e+01
 63.28          3.20000e+01
 63.30          2.30000e+01
 63.32          2.80000e+01
 63.34          3.50000e+01
 63.36          3.00000e+01
 63.38          2.10000e+01
 63.40          2.50000e+01
 63.42          2.60000e+01
 63.44          3.30000e+01
 63.46          2.80000e+01
 63.48          2.00000e+01
 63.50          2.50000e+01
 63.52          2.90000e+01
 63.54          2.50000e+01
 63.56          1.90000e+01
 63.58          2.50000e+01
 63.60          1.60000e+01
 63.62          2.50000e+01
 63.64          2.70000e+01
 63.66          2.20000e+01
 63.68          3.30000e+01
 63.70          2.60000e+01
 63.72          2.90000e+01
 63.74          2.30000e+01
 63.76          2.60000e+01
 63.78          2.50000e+01
 63.80          2.40000e+01
 63.82          3.10000e+01
 63.84          2.80000e+01
 63.86          2.10000e+01
 63.88          2.30000e+01
 63.90          2.70000e+01
 63.92          3.40000e+01
 63.94          2.30000e+01
 63.96          3.00000e+01
 63.98          3.30000e+01
 64.00          2.70000e+01
 64.02          2.40000e+01
 64.04          2.70000e+01
 64.06          2.80000e+01
 64.08          2.70000e+01
 64.10          2.90000e+01
 64.12          2.20000e+01
 64.14          3.40000e+01
 64.16          3.30000e+01
 64.18          2.30000e+01
 64.20          2.30000e+01
 64.22          2.00000e+01
 64.24          1.90000e+01
 64.26          2.10000e+01
 64.28          1.90000e+01
 64.30          1.70000e+01
 64.32          3.30000e+01
 64.34          3.20000e+01
 64.36          2.50000e+01
 64.38          2.10000e+01
 64.40          2.50000e+01
 64.42          2.20000e+01
 64.44          1.60000e+01
 64.46          2.20000e+01
 64.48          2.40000e+01
 64.50          2.20000e+01
 64.52          2.70000e+01
 64.54          2.60000e+01
 64.56          3.00000e+01
 64.58          3.60000e+01
 64.60          3.10000e+01
 64.62          2.20000e+01
 64.64          2.60000e+01
 64.66          2.30000e+01
 64.68          2.10000e+01
 64.70          2.50000e+01
 64.72          3.00000e+01
 64.74          2.20000e+01
 64.76          2.40000e+01
 64.78          3.20000e+01
 64.80          2.10000e+01
 64.82          1.80000e+01
 64.84          1.90000e+01
 64.86          2.60000e+01
 64.88          3.80000e+01
 64.90          3.50000e+01
 64.92          2.30000e+01
 64.94          2.10000e+01
 64.96          1.00000e+01
 64.98          1.40000e+01
 65.00          1.10000e+01
 65.02          2.30000e+01
 65.04          2.10000e+01
 65.06          2.70000e+01
 65.08          2.10000e+01
 65.10          3.80000e+01
 65.12          3.60000e+01
 65.14          2.70000e+01
 65.16          2.20000e+01
 65.18          2.50000e+01
 65.20          2.50000e+01
 65.22          3.70000e+01
 65.24          2.90000e+01
 65.26          2.00000e+01
 65.28          1.80000e+01
 65.30          2.40000e+01
 65.32          2.60000e+01
 65.34          1.80000e+01
 65.36          2.30000e+01
 65.38          2.20000e+01
 65.40          1.50000e+01
 65.42          2.10000e+01
 65.44          2.40000e+01
 65.46          2.60000e+01
 65.48          2.20000e+01
 65.50          1.60000e+01
 65.52          2.60000e+01
 65.54          2.30000e+01
 65.56          2.10000e+01
 65.58          2.40000e+01
 65.60          1.90000e+01
 65.62          2.30000e+01
 65.64          1.90000e+01
 65.66          3.00000e+01
 65.68          2.10000e+01
 65.70          2.40000e+01
 65.72          1.80000e+01
 65.74          2.70000e+01
 65.76          2.00000e+01
 65.78          1.80000e+01
 65.80          2.20000e+01
 65.82          1.90000e+01
 65.84          2.60000e+01
 65.86          2.40000e+01
 65.88          3.30000e+01
 65.90          4.40000e+01
 65.92          3.00000e+01
 65.94          2.40000e+01
 65.96          3.10000e+01
 65.98          2.80000e+01
 66.00          1.10000e+01
 66.02          2.00000e+01
 66.04          1.90000e+01
 66.06          2.00000e+01
 66.08          1.90000e+01
 66.10          1.90000e+01
 66.12          2.10000e+01
 66.14          2.60000e+01
 66.16          2.20000e+01
 66.18          2.90000e+01
 66.20          3.30000e+01
 66.22          3.30000e+01
 66.24          2.70000e+01
 66.26          2.20000e+01
 66.28          2.50000e+01
 66.30          2.50000e+01
 66.32          2.90000e+01
 66.34          2.00000e+01
 66.36          1.40000e+01
 66.38          2.00000e+01
 66.40          4.00000e+01
 66.42          3.20000e+01
 66.44          2.30000e+01
 66.46          1.90000e+01
 66.48          2.70000e+01
 66.50          2.90000e+01
 66.52          2.30000e+01
 66.54          2.30000e+01
 66.56          2.50000e+01
 66.58          2.90000e+01
 66.60          3.20000e+01
 66.62          3.10000e+01
 66.64          2.30000e+01
 66.66          2.40000e+01
 66.68          3.90000e+01
 66.70          2.40000e+01
 66.72          3.00000e+01
 66.74          2.60000e+01
 66.76          1.60000e+01
 66.78          1.50000e+01
 66.80          2.60000e+01
 66.82          2.30000e+01
 66.84          2.40000e+01
 66.86          3.60000e+01
 66.88          2.60000e+01
 66.90          2.40000e+01
 66.92          2.20000e+01
 66.94          2.20000e+01
 66.96          2.50000e+01
 66.98          1.90000e+01
 67.00          2.50000e+01
 67.02          2.30000e+01
 67.04          2.20000e+01
 67.06          1.80000e+01
 67.08          2.40000e+01
 67.10          3.00000e+01
 67.12          2.50000e+01
 67.14          3.30000e+01
 67.16          2.30000e+01
 67.18          2.10000e+01
 67.20          2.60000e+01
 67.22          3.50000e+01
 67.24          2.90000e+01
 67.26          2.70000e+01
 67.28          2.60000e+01
 67.30          2.50000e+01
 67.32          1.30000e+01
 67.34          2.70000e+01
 67.36          2.60000e+01
 67.38          2.80000e+01
 67.40          2.70000e+01
 67.42          3.40000e+01
 67.44          2.40000e+01
 67.46          2.10000e+01
 67.48          2.60000e+01
 67.50          2.10000e+01
 67.52          3.00000e+01
 67.54          1.90000e+01
 67.56          2.50000e+01
 67.58          1.90000e+01
 67.60          2.10000e+01
 67.62          1.80000e+01
 67.64          1.70000e+01
 67.66          3.20000e+01
 67.68          2.20000e+01
 67.70          2.70000e+01
 67.72          3.50000e+01
 67.74          3.10000e+01
 67.76          1.40000e+01
 67.78          2.10000e+01
 67.80          3.40000e+01
 67.82          4.40000e+01
 67.84          2.70000e+01
 67.86          2.90000e+01
 67.88          2.30000e+01
 67.90          2.20000e+01
 67.92          2.30000e+01
 67.94          2.30000e+01
 67.96          3.60000e+01
 67.98          3.20000e+01
 68.00          3.30000e+01
 68.02          2.70000e+01
 68.04          2.30000e+01
 68.06          2.00000e+01
 68.08          3.00000e+01
 68.10          3.30000e+01
 68.12          2.70000e+01
 68.14          1.50000e+01
 68.16          2.00000e+01
 68.18          3.50000e+01
 68.20          2.10000e+01
 68.22          2.50000e+01
 68.24          3.50000e+01
 68.26          2.90000e+01
 68.28          2.30000e+01
 68.30          2.70000e+01
 68.32          2.40000e+01
 68.34          1.90000e+01
 68.36          2.10000e+01
 68.38          2.30000e+01
 68.40          2.50000e+01
 68.42          1.80000e+01
 68.44          2.70000e+01
 68.46          2.70000e+01
 68.48          3.30000e+01
 68.50          1.80000e+01
 68.52          2.20000e+01
 68.54          3.00000e+01
 68.56          3.10000e+01
 68.58          2.30000e+01
 68.60          3.90000e+01
 68.62          2.80000e+01
 68.64          2.80000e+01
 68.66          3.00000e+01
 68.68          2.10000e+01
 68.70          2.30000e+01
 68.72          3.10000e+01
 68.74          3.30000e+01
 68.76          2.90000e+01
 68.78          2.60000e+01
 68.80          2.30000e+01
 68.82          1.90000e+01
 68.84          2.60000e+01
 68.86          3.10000e+01
 68.88          2.10000e+01
 68.90          2.60000e+01
 68.92          3.10000e+01
 68.94          2.00000e+01
 68.96          2.90000e+01
 68.98          2.60000e+01
 69.00          4.00000e+01
 69.02          3.10000e+01
 69.04          3.40000e+01
 69.06          2.90000e+01
 69.08          3.80000e+01
 69.10          3.80000e+01
 69.12          2.70000e+01
 69.14          2.30000e+01
 69.16          2.30000e+01
 69.18          2.10000e+01
 69.20          2.80000e+01
 69.22          2.80000e+01
 69.24          2.00000e+01
 69.26          2.10000e+01
 69.28          2.00000e+01
 69.30          2.50000e+01
 69.32          1.90000e+01
 69.34          2.40000e+01
 69.36          2.40000e+01
 69.38          2.70000e+01
 69.40          2.00000e+01
 69.42          1.60000e+01
 69.44          1.70000e+01
 69.46          2.20000e+01
 69.48          2.30000e+01
 69.50          1.90000e+01
 69.52          1.30000e+01
 69.54          2.60000e+01
 69.56          3.30000e+01
 69.58          3.10000e+01
 69.60          2.40000e+01
 69.62          2.90000e+01
 69.64          2.10000e+01
 69.66          3.00000e+01
 69.68          2.50000e+01
 69.70          2.20000e+01
 69.72          2.80000e+01
 69.74          2.30000e+01
 69.76          3.00000e+01
 69.78          2.10000e+01
 69.80          2.00000e+01
 69.82          2.20000e+01
 69.84          2.30000e+01
 69.86          2.30000e+01
 69.88          1.50000e+01
 69.90          2.50000e+01
 69.92          2.80000e+01
 69.94          2.50000e+01
 69.96          3.20000e+01
 69.98          2.50000e+01
 70.00          2.70000e+01
 70.02          2.90000e+01
 70.04          1.90000e+01
 70.06          2.50000e+01
 70.08          2.40000e+01
 70.10          2.70000e+01
 70.12          2.20000e+01
 70.14          1.70000e+01
 70.16          1.00000e+01
 70.18          2.10000e+01
 70.20          2.40000e+01
 70.22          2.20000e+01
 70.24          2.40000e+01
 70.26          2.50000e+01
 70.28          2.70000e+01
 70.30          2.00000e+01
 70.32          2.20000e+01
 70.34          2.00000e+01
 70.36          2.30000e+01
 70.38          2.60000e+01
 70.40          2.60000e+01
 70.42          2.50000e+01
 70.44          2.50000e+01
 70.46          2.40000e+01
 70.48          2.00000e+01
 70.50          1.30000e+01
 70.52          2.30000e+01
 70.54          1.90000e+01
 70.56          2.40000e+01
 70.58          2.10000e+01
 70.60          2.30000e+01
 70.62          3.10000e+01
 70.64          3.10000e+01
 70.66          3.40000e+01
 70.68          3.20000e+01
 70.70          2.60000e+01
 70.72          2.20000e+01
 70.74          2.40000e+01
 70.76          1.60000e+01
 70.78          3.50000e+01
 70.80          3.00000e+01
 70.82          2.40000e+01
 70.84          2.30000e+01
 70.86          2.30000e+01
 70.88          3.00000e+01
 70.90          2.80000e+01
 70.92          1.80000e+01
 70.94          1.40000e+01
 70.96          1.90000e+01
 70.98          2.00000e+01
 71.00          2.30000e+01
 71.02          2.80000e+01
 71.04          4.10000e+01
 71.06          2.70000e+01
 71.08          3.20000e+01
 71.10          1.50000e+01
 71.12          1.70000e+01
 71.14          2.50000e+01
 71.16          2.10000e+01
 71.18          1.70000e+01
 71.20          1.70000e+01
 71.22          2.50000e+01
 71.24          2.10000e+01
 71.26          2.10000e+01
 71.28          2.50000e+01
 71.30          3.30000e+01
 71.32          2.00000e+01
 71.34          2.70000e+01
 71.36          2.20000e+01
 71.38          1.70000e+01
 71.40          2.30000e+01
 71.42          2.90000e+01
 71.44          3.60000e+01
 71.46          2.40000e+01
 71.48          2.60000e+01
 71.50          1.80000e+01
 71.52          2.00000e+01
 71.54          2.10000e+01
 71.56          3.20000e+01
 71.58          3.60000e+01
 71.60          2.90000e+01
 71.62          1.80000e+01
 71.64          1.00000e+01
 71.66          1.60000e+01
 71.68          2.20000e+01
 71.70          2.50000e+01
 71.72          2.30000e+01
 71.74          2.60000e+01
 71.76          2.00000e+01
 71.78          2.00000e+01
 71.80          1.40000e+01
 71.82          1.80000e+01
 71.84          2.30000e+01
 71.86          2.70000e+01
 71.88          2.50000e+01
 71.90          2.60000e+01
 71.92          2.50000e+01
 71.94          2.10000e+01
 71.96          2.10000e+01
 71.98          2.90000e+01
 72.00          2.20000e+01
 72.02          3.00000e+01
 72.04          2.70000e+01
 72.06          1.20000e+01
 72.08          1.70000e+01
 72.10          1.60000e+01
 72.12          1.40000e+01
 72.14          2.50000e+01
 72.16          2.20000e+01
 72.18          1.80000e+01
 72.20          2.40000e+01
 72.22          3.20000e+01
 72.24          3.60000e+01
 72.26          2.60000e+01
 72.28          2.60000e+01
 72.30          1.90000e+01
 72.32          2.00000e+01
 72.34          2.50000e+01
 72.36          3.50000e+01
 72.38          2.90000e+01
 72.40          3.00000e+01
 72.42          2.60000e+01
 72.44          2.10000e+01
 72.46          2.10000e+01
 72.48          2.00000e+01
 72.50          1.70000e+01
 72.52          2.20000e+01
 72.54          1.90000e+01
 72.56          2.40000e+01
 72.58          3.30000e+01
 72.60          2.00000e+01
 72.62          2.90000e+01
 72.64          2.40000e+01
 72.66          1.90000e+01
 72.68          2.70000e+01
 72.70          2.40000e+01
 72.72          2.40000e+01
 72.74          2.50000e+01
 72.76          3.50000e+01
 72.78          2.00000e+01
 72.80          1.50000e+01
 72.82          2.60000e+01
 72.84          1.90000e+01
 72.86          2.50000e+01
 72.88          2.50000e+01
 72.90          1.90000e+01
 72.92          2.40000e+01
 72.94          2.80000e+01
 72.96          3.70000e+01
 72.98          3.00000e+01
 73.00          2.90000e+01
 73.02          2.20000e+01
 73.04          2.80000e+01
 73.06          2.90000e+01
 73.08          1.70000e+01
 73.10          1.50000e+01
 73.12          2.00000e+01
 73.14          2.20000e+01
 73.16          2.10000e+01
 73.18          2.50000e+01
 73.20          2.10000e+01
 73.22          1.90000e+01
 73.24          2.60000e+01
 73.26          2.30000e+01
 73.28          1.70000e+01
 73.30          2.40000e+01
 73.32          2.30000e+01
 73.34          2.10000e+01
 73.36          1.80000e+01
 73.38          2.40000e+01
 73.40          1.60000e+01
 73.42          2.00000e+01
 73.44          1.90000e+01
 73.46          1.80000e+01
 73.48          3.00000e+01
 73.50          2.50000e+01
 73.52          1.40000e+01
 73.54          1.60000e+01
 73.56          2.00000e+01
 73.58          2.40000e+01
 73.60          3.10000e+01
 73.62          2.30000e+01
 73.64          2.80000e+01
 73.66          3.10000e+01
 73.68          2.10000e+01
 73.70          2.70000e+01
 73.72          2.30000e+01
 73.74          2.20000e+01
 73.76          2.00000e+01
 73.78          1.30000e+01
 73.80          2.70000e+01
 73.82          2.70000e+01
 73.84          2.60000e+01
 73.86          2.10000e+01
 73.88          2.20000e+01
 73.90          3.00000e+01
 73.92          1.70000e+01
 73.94          1.30000e+01
 73.96          2.30000e+01
 73.98          2.20000e+01
 74.00          2.70000e+01
 74.02          2.40000e+01
 74.04          2.00000e+01
 74.06          1.60000e+01
 74.08          2.90000e+01
 74.10          2.70000e+01
 74.12          3.00000e+01
 74.14          2.30000e+01
 74.16          1.50000e+01
 74.18          2.30000e+01
 74.20          2.40000e+01
 74.22          3.00000e+01
 74.24          1.80000e+01
 74.26          1.30000e+01
 74.28          2.20000e+01
 74.30          2.50000e+01
 74.32          2.60000e+01
 74.34          2.30000e+01
 74.36          1.80000e+01
 74.38          1.70000e+01
 74.40          2.20000e+01
 74.42          2.10000e+01
 74.44          3.60000e+01
 74.46          2.70000e+01
 74.48          2.60000e+01
 74.50          2.30000e+01
 74.52          3.10000e+01
 74.54          2.80000e+01
 74.56          2.40000e+01
 74.58          2.30000e+01
 74.60          1.20000e+01
 74.62          1.80000e+01
 74.64          1.30000e+01
 74.66          1.40000e+01
 74.68          2.40000e+01
 74.70          2.60000e+01
 74.72          2.10000e+01
 74.74          1.90000e+01
 74.76          2.60000e+01
 74.78          2.30000e+01
 74.80          2.00000e+01
 74.82          2.30000e+01
 74.84          1.70000e+01
 74.86          1.40000e+01
 74.88          1.70000e+01
 74.90          1.40000e+01
 74.92          2.30000e+01
 74.94          2.40000e+01
 74.96          3.40000e+01
 74.98          2.70000e+01
