#-----------------------------------------------
# data_format   :  2.1
# original_file :  6061_Au_D2_v1J2.dat
# date          :  Mon Dec  7 03:00:20 2015
# molecule      :  D2
# temperature   :  1063
# v             :  1
# J             :  2
# data_col      :  2
# data_row      :  47
#-----------------------------------------------

#-----------------------------------------------
# Original Header
#-----------------------------------------------
# Counter Settings:
# Falling Edge
# Disc Threshold [V]	-0.301514
# Dwell time [s]	2.000000E-8
# Number of channels	3750
# Number of Scans	25000
# 
# D2
# v 1
# J 2
# 29.5V 3.24A
# Au 788C
# Knnew  ?C
# Kn  e-2mbar (base 1.5e-2)
# x=35mm y=35.5mm z=512mm
# D2/RGA 8.0e-11 torr (base 1.8e-11)
# 500: 8.3e-9 mbar
# 100: 2.3e-9 mbar
# FFR heater 4.0A 1.25V
# extra heater 3.0A 0.6V
# Extractor: -30V
# Lens: -1200V
# MCP: -2100V
# Laser Position	207.500001
# 
# Laser Power [mJ]	1.072662
# Time [µs]	Counts

#-----------------------------------------------
# Begin Data
#-----------------------------------------------
  0.00          4.11390e+04
  0.02          1.17950e+04
  0.04          2.12000e+02
  0.06          1.24000e+02
  0.08          1.37000e+02
  0.10          7.50000e+01
  0.12          2.30000e+01
  0.14          1.50000e+01
  0.16          1.80000e+01
  0.18          2.90000e+01
  0.20          3.50000e+01
  0.22          4.30000e+01
  0.24          4.80000e+01
  0.26          5.80000e+01
  0.28          7.50000e+01
  0.30          9.30000e+01
  0.32          6.60000e+01
  0.34          7.60000e+01
  0.36          8.80000e+01
  0.38          9.50000e+01
  0.40          9.70000e+01
  0.42          9.80000e+01
  0.44          9.30000e+01
  0.46          7.40000e+01
  0.48          8.10000e+01
  0.50          6.30000e+01
  0.52          4.60000e+01
  0.54          5.20000e+01
  0.56          5.30000e+01
  0.58          5.30000e+01
  0.60          6.20000e+01
  0.62          7.10000e+01
  0.64          7.80000e+01
  0.66          1.01000e+02
  0.68          7.20000e+01
  0.70          7.80000e+01
  0.72          6.70000e+01
  0.74          9.60000e+01
  0.76          1.13000e+02
  0.78          1.48000e+02
  0.80          1.89000e+02
  0.82          2.01000e+02
  0.84          2.25000e+02
  0.86          1.88000e+02
  0.88          2.54000e+02
  0.90          2.76000e+02
  0.92          3.12000e+02
  0.94          3.43000e+02
  0.96          3.80000e+02
  0.98          4.68000e+02
  1.00          5.52000e+02
  1.02          6.46000e+02
  1.04          7.56000e+02
  1.06          8.00000e+02
  1.08          8.27000e+02
  1.10          6.97000e+02
  1.12          6.47000e+02
  1.14          4.71000e+02
  1.16          3.18000e+02
  1.18          2.41000e+02
  1.20          2.14000e+02
  1.22          1.97000e+02
  1.24          1.92000e+02
  1.26          1.75000e+02
  1.28          1.96000e+02
  1.30          1.66000e+02
  1.32          1.77000e+02
  1.34          1.72000e+02
  1.36          1.56000e+02
  1.38          1.60000e+02
  1.40          1.72000e+02
  1.42          1.77000e+02
  1.44          1.54000e+02
  1.46          1.33000e+02
  1.48          1.31000e+02
  1.50          1.07000e+02
  1.52          1.15000e+02
  1.54          1.03000e+02
  1.56          7.30000e+01
  1.58          7.30000e+01
  1.60          6.30000e+01
  1.62          4.90000e+01
  1.64          3.50000e+01
  1.66          3.80000e+01
  1.68          4.50000e+01
  1.70          4.50000e+01
  1.72          4.60000e+01
  1.74          4.80000e+01
  1.76          4.70000e+01
  1.78          2.70000e+01
  1.80          3.70000e+01
  1.82          2.80000e+01
  1.84          2.60000e+01
  1.86          4.60000e+01
  1.88          4.20000e+01
  1.90          3.80000e+01
  1.92          3.60000e+01
  1.94          3.20000e+01
  1.96          2.70000e+01
  1.98          3.60000e+01
  2.00          4.10000e+01
  2.02          4.00000e+01
  2.04          4.80000e+01
  2.06          4.80000e+01
  2.08          4.20000e+01
  2.10          3.70000e+01
  2.12          5.20000e+01
  2.14          4.30000e+01
  2.16          4.00000e+01
  2.18          3.60000e+01
  2.20          3.30000e+01
  2.22          3.10000e+01
  2.24          3.50000e+01
  2.26          4.50000e+01
  2.28          3.50000e+01
  2.30          3.00000e+01
  2.32          4.00000e+01
  2.34          2.10000e+01
  2.36          3.10000e+01
  2.38          3.40000e+01
  2.40          2.50000e+01
  2.42          3.60000e+01
  2.44          3.10000e+01
  2.46          3.00000e+01
  2.48          3.70000e+01
  2.50          3.30000e+01
  2.52          1.90000e+01
  2.54          2.20000e+01
  2.56          2.80000e+01
  2.58          3.10000e+01
  2.60          2.30000e+01
  2.62          2.90000e+01
  2.64          2.90000e+01
  2.66          1.80000e+01
  2.68          2.70000e+01
  2.70          2.40000e+01
  2.72          2.90000e+01
  2.74          2.20000e+01
  2.76          2.20000e+01
  2.78          2.40000e+01
  2.80          3.20000e+01
  2.82          3.20000e+01
  2.84          2.40000e+01
  2.86          1.60000e+01
  2.88          1.90000e+01
  2.90          2.20000e+01
  2.92          2.60000e+01
  2.94          2.30000e+01
  2.96          1.70000e+01
  2.98          2.10000e+01
  3.00          2.80000e+01
  3.02          2.30000e+01
  3.04          1.20000e+01
  3.06          2.20000e+01
  3.08          2.20000e+01
  3.10          2.60000e+01
  3.12          2.10000e+01
  3.14          2.20000e+01
  3.16          1.90000e+01
  3.18          2.10000e+01
  3.20          1.50000e+01
  3.22          1.60000e+01
  3.24          1.60000e+01
  3.26          1.40000e+01
  3.28          1.50000e+01
  3.30          1.40000e+01
  3.32          1.60000e+01
  3.34          1.90000e+01
  3.36          1.40000e+01
  3.38          3.20000e+01
  3.40          3.30000e+01
  3.42          2.70000e+01
  3.44          2.30000e+01
  3.46          1.80000e+01
  3.48          2.10000e+01
  3.50          2.10000e+01
  3.52          4.90000e+01
  3.54          3.00000e+01
  3.56          3.20000e+01
  3.58          2.80000e+01
  3.60          2.00000e+01
  3.62          2.50000e+01
  3.64          2.70000e+01
  3.66          1.90000e+01
  3.68          1.80000e+01
  3.70          2.30000e+01
  3.72          2.20000e+01
  3.74          2.30000e+01
  3.76          2.60000e+01
  3.78          2.30000e+01
  3.80          2.60000e+01
  3.82          2.30000e+01
  3.84          2.00000e+01
  3.86          1.80000e+01
  3.88          2.00000e+01
  3.90          2.70000e+01
  3.92          2.70000e+01
  3.94          2.00000e+01
  3.96          2.20000e+01
  3.98          2.60000e+01
  4.00          2.20000e+01
  4.02          3.60000e+01
  4.04          2.90000e+01
  4.06          2.10000e+01
  4.08          3.30000e+01
  4.10          3.20000e+01
  4.12          2.10000e+01
  4.14          2.40000e+01
  4.16          2.30000e+01
  4.18          2.40000e+01
  4.20          3.00000e+01
  4.22          2.10000e+01
  4.24          3.20000e+01
  4.26          3.00000e+01
  4.28          3.90000e+01
  4.30          4.00000e+01
  4.32          2.90000e+01
  4.34          2.00000e+01
  4.36          2.30000e+01
  4.38          2.80000e+01
  4.40          2.20000e+01
  4.42          3.60000e+01
  4.44          3.40000e+01
  4.46          3.80000e+01
  4.48          3.80000e+01
  4.50          3.30000e+01
  4.52          2.50000e+01
  4.54          3.20000e+01
  4.56          4.20000e+01
  4.58          3.40000e+01
  4.60          2.40000e+01
  4.62          2.70000e+01
  4.64          3.60000e+01
  4.66          2.50000e+01
  4.68          2.40000e+01
  4.70          2.60000e+01
  4.72          3.30000e+01
  4.74          2.90000e+01
  4.76          2.80000e+01
  4.78          3.60000e+01
  4.80          3.20000e+01
  4.82          2.20000e+01
  4.84          3.40000e+01
  4.86          2.70000e+01
  4.88          2.50000e+01
  4.90          2.50000e+01
  4.92          2.30000e+01
  4.94          1.90000e+01
  4.96          2.30000e+01
  4.98          2.80000e+01
  5.00          2.30000e+01
  5.02          2.50000e+01
  5.04          3.80000e+01
  5.06          4.00000e+01
  5.08          3.20000e+01
  5.10          4.10000e+01
  5.12          3.20000e+01
  5.14          2.80000e+01
  5.16          2.60000e+01
  5.18          3.40000e+01
  5.20          4.20000e+01
  5.22          3.30000e+01
  5.24          4.80000e+01
  5.26          4.20000e+01
  5.28          4.90000e+01
  5.30          4.20000e+01
  5.32          3.70000e+01
  5.34          4.40000e+01
  5.36          4.20000e+01
  5.38          4.00000e+01
  5.40          4.20000e+01
  5.42          3.10000e+01
  5.44          3.80000e+01
  5.46          5.00000e+01
  5.48          5.40000e+01
  5.50          4.40000e+01
  5.52          3.70000e+01
  5.54          3.60000e+01
  5.56          4.60000e+01
  5.58          3.20000e+01
  5.60          3.60000e+01
  5.62          3.00000e+01
  5.64          2.80000e+01
  5.66          3.40000e+01
  5.68          3.60000e+01
  5.70          3.40000e+01
  5.72          3.40000e+01
  5.74          4.30000e+01
  5.76          4.70000e+01
  5.78          3.20000e+01
  5.80          4.10000e+01
  5.82          5.00000e+01
  5.84          3.70000e+01
  5.86          3.50000e+01
  5.88          3.20000e+01
  5.90          3.70000e+01
  5.92          3.70000e+01
  5.94          4.30000e+01
  5.96          4.80000e+01
  5.98          4.00000e+01
  6.00          4.60000e+01
  6.02          3.90000e+01
  6.04          4.40000e+01
  6.06          5.00000e+01
  6.08          4.20000e+01
  6.10          4.20000e+01
  6.12          3.90000e+01
  6.14          3.40000e+01
  6.16          3.00000e+01
  6.18          3.40000e+01
  6.20          5.20000e+01
  6.22          6.00000e+01
  6.24          6.40000e+01
  6.26          6.20000e+01
  6.28          5.30000e+01
  6.30          4.60000e+01
  6.32          4.80000e+01
  6.34          5.20000e+01
  6.36          4.00000e+01
  6.38          3.70000e+01
  6.40          4.10000e+01
  6.42          3.70000e+01
  6.44          3.80000e+01
  6.46          4.20000e+01
  6.48          3.50000e+01
  6.50          3.70000e+01
  6.52          4.70000e+01
  6.54          4.80000e+01
  6.56          4.90000e+01
  6.58          5.90000e+01
  6.60          5.80000e+01
  6.62          5.70000e+01
  6.64          5.60000e+01
  6.66          5.70000e+01
  6.68          4.60000e+01
  6.70          4.90000e+01
  6.72          5.70000e+01
  6.74          6.10000e+01
  6.76          7.30000e+01
  6.78          3.60000e+01
  6.80          2.90000e+01
  6.82          3.30000e+01
  6.84          5.40000e+01
  6.86          6.00000e+01
  6.88          6.40000e+01
  6.90          6.10000e+01
  6.92          6.90000e+01
  6.94          6.70000e+01
  6.96          5.40000e+01
  6.98          4.40000e+01
  7.00          3.50000e+01
  7.02          4.10000e+01
  7.04          3.90000e+01
  7.06          4.60000e+01
  7.08          5.00000e+01
  7.10          6.00000e+01
  7.12          6.70000e+01
  7.14          5.50000e+01
  7.16          6.60000e+01
  7.18          6.40000e+01
  7.20          6.90000e+01
  7.22          5.40000e+01
  7.24          4.10000e+01
  7.26          3.50000e+01
  7.28          3.50000e+01
  7.30          4.50000e+01
  7.32          4.60000e+01
  7.34          4.50000e+01
  7.36          4.30000e+01
  7.38          5.50000e+01
  7.40          4.20000e+01
  7.42          5.40000e+01
  7.44          6.30000e+01
  7.46          5.00000e+01
  7.48          6.70000e+01
  7.50          6.50000e+01
  7.52          5.60000e+01
  7.54          5.00000e+01
  7.56          5.00000e+01
  7.58          6.60000e+01
  7.60          5.60000e+01
  7.62          4.30000e+01
  7.64          5.40000e+01
  7.66          6.50000e+01
  7.68          6.30000e+01
  7.70          6.60000e+01
  7.72          6.50000e+01
  7.74          5.00000e+01
  7.76          3.80000e+01
  7.78          3.60000e+01
  7.80          4.60000e+01
  7.82          4.50000e+01
  7.84          3.90000e+01
  7.86          4.90000e+01
  7.88          5.40000e+01
  7.90          5.30000e+01
  7.92          6.10000e+01
  7.94          5.60000e+01
  7.96          5.20000e+01
  7.98          4.20000e+01
  8.00          5.00000e+01
  8.02          3.90000e+01
  8.04          6.60000e+01
  8.06          5.90000e+01
  8.08          5.80000e+01
  8.10          4.00000e+01
  8.12          4.80000e+01
  8.14          4.80000e+01
  8.16          4.20000e+01
  8.18          4.90000e+01
  8.20          7.60000e+01
  8.22          6.00000e+01
  8.24          6.90000e+01
  8.26          4.20000e+01
  8.28          5.40000e+01
  8.30          4.50000e+01
  8.32          5.10000e+01
  8.34          6.00000e+01
  8.36          4.80000e+01
  8.38          5.40000e+01
  8.40          5.20000e+01
  8.42          4.10000e+01
  8.44          5.30000e+01
  8.46          5.70000e+01
  8.48          7.10000e+01
  8.50          5.50000e+01
  8.52          5.80000e+01
  8.54          7.30000e+01
  8.56          7.40000e+01
  8.58          5.60000e+01
  8.60          5.40000e+01
  8.62          5.80000e+01
  8.64          8.40000e+01
  8.66          7.40000e+01
  8.68          9.00000e+01
  8.70          8.10000e+01
  8.72          8.00000e+01
  8.74          8.30000e+01
  8.76          8.30000e+01
  8.78          1.02000e+02
  8.80          9.60000e+01
  8.82          6.90000e+01
  8.84          7.40000e+01
  8.86          8.50000e+01
  8.88          8.30000e+01
  8.90          8.60000e+01
  8.92          8.30000e+01
  8.94          8.00000e+01
  8.96          8.60000e+01
  8.98          8.60000e+01
  9.00          9.90000e+01
  9.02          1.06000e+02
  9.04          1.13000e+02
  9.06          7.90000e+01
  9.08          1.00000e+02
  9.10          9.30000e+01
  9.12          1.06000e+02
  9.14          9.60000e+01
  9.16          1.05000e+02
  9.18          1.04000e+02
  9.20          1.20000e+02
  9.22          1.27000e+02
  9.24          1.19000e+02
  9.26          1.36000e+02
  9.28          1.38000e+02
  9.30          1.29000e+02
  9.32          1.53000e+02
  9.34          1.36000e+02
  9.36          1.37000e+02
  9.38          1.19000e+02
  9.40          1.13000e+02
  9.42          1.21000e+02
  9.44          1.27000e+02
  9.46          1.53000e+02
  9.48          1.41000e+02
  9.50          1.24000e+02
  9.52          1.32000e+02
  9.54          1.52000e+02
  9.56          1.42000e+02
  9.58          1.16000e+02
  9.60          1.41000e+02
  9.62          1.47000e+02
  9.64          1.60000e+02
  9.66          1.32000e+02
  9.68          1.20000e+02
  9.70          1.34000e+02
  9.72          1.52000e+02
  9.74          1.34000e+02
  9.76          1.37000e+02
  9.78          1.34000e+02
  9.80          1.17000e+02
  9.82          1.04000e+02
  9.84          1.23000e+02
  9.86          1.16000e+02
  9.88          1.29000e+02
  9.90          1.29000e+02
  9.92          1.18000e+02
  9.94          1.18000e+02
  9.96          1.12000e+02
  9.98          1.08000e+02
 10.00          1.07000e+02
 10.02          8.50000e+01
 10.04          1.06000e+02
 10.06          1.14000e+02
 10.08          1.06000e+02
 10.10          9.30000e+01
 10.12          1.17000e+02
 10.14          9.40000e+01
 10.16          1.00000e+02
 10.18          1.03000e+02
 10.20          8.00000e+01
 10.22          6.50000e+01
 10.24          7.30000e+01
 10.26          8.60000e+01
 10.28          7.50000e+01
 10.30          7.00000e+01
 10.32          7.40000e+01
 10.34          7.10000e+01
 10.36          6.90000e+01
 10.38          7.30000e+01
 10.40          7.10000e+01
 10.42          9.30000e+01
 10.44          6.40000e+01
 10.46          8.50000e+01
 10.48          8.20000e+01
 10.50          8.10000e+01
 10.52          8.80000e+01
 10.54          8.80000e+01
 10.56          8.60000e+01
 10.58          8.90000e+01
 10.60          8.60000e+01
 10.62          6.20000e+01
 10.64          6.50000e+01
 10.66          6.80000e+01
 10.68          5.80000e+01
 10.70          6.20000e+01
 10.72          8.40000e+01
 10.74          6.70000e+01
 10.76          8.10000e+01
 10.78          6.50000e+01
 10.80          5.30000e+01
 10.82          6.10000e+01
 10.84          4.90000e+01
 10.86          7.20000e+01
 10.88          6.70000e+01
 10.90          6.00000e+01
 10.92          6.10000e+01
 10.94          5.80000e+01
 10.96          4.70000e+01
 10.98          5.70000e+01
 11.00          4.00000e+01
 11.02          4.30000e+01
 11.04          5.50000e+01
 11.06          5.10000e+01
 11.08          5.50000e+01
 11.10          4.40000e+01
 11.12          6.00000e+01
 11.14          6.20000e+01
 11.16          4.50000e+01
 11.18          6.30000e+01
 11.20          3.70000e+01
 11.22          4.30000e+01
 11.24          3.80000e+01
 11.26          3.90000e+01
 11.28          4.80000e+01
 11.30          5.60000e+01
 11.32          3.30000e+01
 11.34          4.50000e+01
 11.36          4.50000e+01
 11.38          3.10000e+01
 11.40          2.90000e+01
 11.42          4.20000e+01
 11.44          4.30000e+01
 11.46          3.70000e+01
 11.48          3.00000e+01
 11.50          3.20000e+01
 11.52          3.60000e+01
 11.54          3.70000e+01
 11.56          3.70000e+01
 11.58          4.20000e+01
 11.60          3.80000e+01
 11.62          3.60000e+01
 11.64          3.40000e+01
 11.66          4.20000e+01
 11.68          4.20000e+01
 11.70          4.00000e+01
 11.72          3.20000e+01
 11.74          4.70000e+01
 11.76          5.20000e+01
 11.78          3.50000e+01
 11.80          2.70000e+01
 11.82          3.10000e+01
 11.84          2.30000e+01
 11.86          3.50000e+01
 11.88          3.80000e+01
 11.90          3.40000e+01
 11.92          3.40000e+01
 11.94          2.70000e+01
 11.96          3.20000e+01
 11.98          4.00000e+01
 12.00          3.80000e+01
 12.02          2.80000e+01
 12.04          3.20000e+01
 12.06          3.60000e+01
 12.08          3.60000e+01
 12.10          3.10000e+01
 12.12          3.40000e+01
 12.14          3.40000e+01
 12.16          4.30000e+01
 12.18          2.90000e+01
 12.20          3.30000e+01
 12.22          3.80000e+01
 12.24          4.60000e+01
 12.26          3.60000e+01
 12.28          3.30000e+01
 12.30          2.80000e+01
 12.32          2.40000e+01
 12.34          2.40000e+01
 12.36          3.60000e+01
 12.38          2.40000e+01
 12.40          3.90000e+01
 12.42          3.10000e+01
 12.44          3.10000e+01
 12.46          2.20000e+01
 12.48          3.40000e+01
 12.50          3.20000e+01
 12.52          2.10000e+01
 12.54          3.50000e+01
 12.56          3.50000e+01
 12.58          3.00000e+01
 12.60          2.10000e+01
 12.62          3.20000e+01
 12.64          2.20000e+01
 12.66          2.70000e+01
 12.68          3.70000e+01
 12.70          2.90000e+01
 12.72          1.90000e+01
 12.74          2.60000e+01
 12.76          3.40000e+01
 12.78          2.90000e+01
 12.80          2.80000e+01
 12.82          3.20000e+01
 12.84          2.70000e+01
 12.86          3.60000e+01
 12.88          2.40000e+01
 12.90          2.70000e+01
 12.92          3.10000e+01
 12.94          2.90000e+01
 12.96          2.30000e+01
 12.98          3.20000e+01
 13.00          3.00000e+01
 13.02          5.10000e+01
 13.04          4.30000e+01
 13.06          3.60000e+01
 13.08          3.40000e+01
 13.10          3.60000e+01
 13.12          2.60000e+01
 13.14          3.30000e+01
 13.16          2.70000e+01
 13.18          2.80000e+01
 13.20          3.10000e+01
 13.22          3.60000e+01
 13.24          2.10000e+01
 13.26          1.90000e+01
 13.28          2.50000e+01
 13.30          3.20000e+01
 13.32          3.70000e+01
 13.34          2.30000e+01
 13.36          2.50000e+01
 13.38          4.00000e+01
 13.40          2.70000e+01
 13.42          3.30000e+01
 13.44          3.40000e+01
 13.46          3.10000e+01
 13.48          2.80000e+01
 13.50          2.80000e+01
 13.52          3.20000e+01
 13.54          2.70000e+01
 13.56          3.00000e+01
 13.58          3.00000e+01
 13.60          3.80000e+01
 13.62          2.70000e+01
 13.64          2.40000e+01
 13.66          3.00000e+01
 13.68          3.40000e+01
 13.70          2.40000e+01
 13.72          2.30000e+01
 13.74          1.70000e+01
 13.76          2.30000e+01
 13.78          3.30000e+01
 13.80          3.10000e+01
 13.82          4.20000e+01
 13.84          3.00000e+01
 13.86          3.20000e+01
 13.88          4.00000e+01
 13.90          2.90000e+01
 13.92          3.20000e+01
 13.94          3.20000e+01
 13.96          3.70000e+01
 13.98          2.40000e+01
 14.00          1.80000e+01
 14.02          2.80000e+01
 14.04          2.60000e+01
 14.06          2.30000e+01
 14.08          3.40000e+01
 14.10          3.80000e+01
 14.12          3.40000e+01
 14.14          2.60000e+01
 14.16          2.10000e+01
 14.18          1.90000e+01
 14.20          4.90000e+01
 14.22          2.90000e+01
 14.24          4.20000e+01
 14.26          3.30000e+01
 14.28          3.60000e+01
 14.30          2.50000e+01
 14.32          2.90000e+01
 14.34          3.20000e+01
 14.36          2.30000e+01
 14.38          2.10000e+01
 14.40          4.10000e+01
 14.42          3.80000e+01
 14.44          3.40000e+01
 14.46          2.90000e+01
 14.48          3.30000e+01
 14.50          2.90000e+01
 14.52          2.40000e+01
 14.54          3.40000e+01
 14.56          3.60000e+01
 14.58          3.40000e+01
 14.60          2.30000e+01
 14.62          3.10000e+01
 14.64          3.00000e+01
 14.66          3.50000e+01
 14.68          4.20000e+01
 14.70          2.70000e+01
 14.72          2.50000e+01
 14.74          3.40000e+01
 14.76          2.90000e+01
 14.78          3.70000e+01
 14.80          2.50000e+01
 14.82          2.90000e+01
 14.84          3.40000e+01
 14.86          3.40000e+01
 14.88          4.20000e+01
 14.90          3.30000e+01
 14.92          4.00000e+01
 14.94          2.70000e+01
 14.96          2.20000e+01
 14.98          3.30000e+01
 15.00          3.60000e+01
 15.02          3.90000e+01
 15.04          3.70000e+01
 15.06          4.10000e+01
 15.08          3.40000e+01
 15.10          3.30000e+01
 15.12          3.40000e+01
 15.14          3.20000e+01
 15.16          3.40000e+01
 15.18          3.40000e+01
 15.20          2.70000e+01
 15.22          3.00000e+01
 15.24          2.80000e+01
 15.26          2.80000e+01
 15.28          3.60000e+01
 15.30          3.00000e+01
 15.32          3.60000e+01
 15.34          4.20000e+01
 15.36          3.80000e+01
 15.38          3.60000e+01
 15.40          2.60000e+01
 15.42          3.00000e+01
 15.44          2.70000e+01
 15.46          2.10000e+01
 15.48          2.90000e+01
 15.50          2.60000e+01
 15.52          2.60000e+01
 15.54          3.70000e+01
 15.56          5.20000e+01
 15.58          3.50000e+01
 15.60          2.80000e+01
 15.62          3.30000e+01
 15.64          3.00000e+01
 15.66          3.80000e+01
 15.68          4.00000e+01
 15.70          3.10000e+01
 15.72          1.80000e+01
 15.74          2.90000e+01
 15.76          2.90000e+01
 15.78          3.00000e+01
 15.80          2.70000e+01
 15.82          1.90000e+01
 15.84          2.80000e+01
 15.86          3.30000e+01
 15.88          3.40000e+01
 15.90          3.10000e+01
 15.92          4.60000e+01
 15.94          4.60000e+01
 15.96          5.00000e+01
 15.98          4.00000e+01
 16.00          4.00000e+01
 16.02          3.60000e+01
 16.04          4.70000e+01
 16.06          2.40000e+01
 16.08          2.00000e+01
 16.10          2.60000e+01
 16.12          2.20000e+01
 16.14          2.00000e+01
 16.16          1.80000e+01
 16.18          2.60000e+01
 16.20          3.10000e+01
 16.22          3.10000e+01
 16.24          3.30000e+01
 16.26          3.40000e+01
 16.28          3.60000e+01
 16.30          2.80000e+01
 16.32          4.70000e+01
 16.34          4.10000e+01
 16.36          3.80000e+01
 16.38          2.10000e+01
 16.40          2.90000e+01
 16.42          2.70000e+01
 16.44          3.80000e+01
 16.46          4.20000e+01
 16.48          2.60000e+01
 16.50          2.80000e+01
 16.52          3.30000e+01
 16.54          3.30000e+01
 16.56          4.30000e+01
 16.58          2.50000e+01
 16.60          2.20000e+01
 16.62          2.70000e+01
 16.64          2.60000e+01
 16.66          2.80000e+01
 16.68          2.10000e+01
 16.70          2.60000e+01
 16.72          3.30000e+01
 16.74          3.90000e+01
 16.76          4.20000e+01
 16.78          4.50000e+01
 16.80          3.80000e+01
 16.82          2.20000e+01
 16.84          1.80000e+01
 16.86          1.70000e+01
 16.88          2.50000e+01
 16.90          3.20000e+01
 16.92          4.30000e+01
 16.94          3.40000e+01
 16.96          2.80000e+01
 16.98          2.50000e+01
 17.00          2.40000e+01
 17.02          3.40000e+01
 17.04          3.50000e+01
 17.06          2.40000e+01
 17.08          2.50000e+01
 17.10          3.20000e+01
 17.12          2.80000e+01
 17.14          2.30000e+01
 17.16          2.00000e+01
 17.18          2.60000e+01
 17.20          3.10000e+01
 17.22          2.70000e+01
 17.24          4.20000e+01
 17.26          4.20000e+01
 17.28          4.30000e+01
 17.30          2.80000e+01
 17.32          2.90000e+01
 17.34          3.20000e+01
 17.36          3.80000e+01
 17.38          3.90000e+01
 17.40          3.40000e+01
 17.42          2.90000e+01
 17.44          2.80000e+01
 17.46          2.40000e+01
 17.48          3.00000e+01
 17.50          3.20000e+01
 17.52          2.30000e+01
 17.54          3.40000e+01
 17.56          2.80000e+01
 17.58          2.20000e+01
 17.60          3.90000e+01
 17.62          3.60000e+01
 17.64          2.90000e+01
 17.66          4.20000e+01
 17.68          3.30000e+01
 17.70          3.10000e+01
 17.72          4.50000e+01
 17.74          3.80000e+01
 17.76          3.30000e+01
 17.78          4.80000e+01
 17.80          3.90000e+01
 17.82          3.30000e+01
 17.84          4.10000e+01
 17.86          4.10000e+01
 17.88          3.00000e+01
 17.90          2.30000e+01
 17.92          3.70000e+01
 17.94          3.80000e+01
 17.96          2.50000e+01
 17.98          1.40000e+01
 18.00          3.20000e+01
 18.02          3.60000e+01
 18.04          3.40000e+01
 18.06          3.70000e+01
 18.08          3.80000e+01
 18.10          3.50000e+01
 18.12          2.40000e+01
 18.14          2.70000e+01
 18.16          2.60000e+01
 18.18          2.70000e+01
 18.20          3.10000e+01
 18.22          1.50000e+01
 18.24          2.00000e+01
 18.26          2.20000e+01
 18.28          2.50000e+01
 18.30          2.70000e+01
 18.32          4.30000e+01
 18.34          3.90000e+01
 18.36          3.00000e+01
 18.38          2.70000e+01
 18.40          3.30000e+01
 18.42          3.70000e+01
 18.44          3.10000e+01
 18.46          3.00000e+01
 18.48          2.50000e+01
 18.50          3.20000e+01
 18.52          3.90000e+01
 18.54          2.30000e+01
 18.56          2.90000e+01
 18.58          3.20000e+01
 18.60          3.20000e+01
 18.62          2.70000e+01
 18.64          2.90000e+01
 18.66          2.80000e+01
 18.68          3.80000e+01
 18.70          4.20000e+01
 18.72          4.30000e+01
 18.74          4.90000e+01
 18.76          3.90000e+01
 18.78          4.00000e+01
 18.80          4.20000e+01
 18.82          3.30000e+01
 18.84          4.10000e+01
 18.86          2.90000e+01
 18.88          2.70000e+01
 18.90          3.50000e+01
 18.92          2.90000e+01
 18.94          3.20000e+01
 18.96          3.10000e+01
 18.98          4.10000e+01
 19.00          4.20000e+01
 19.02          3.60000e+01
 19.04          3.20000e+01
 19.06          2.30000e+01
 19.08          3.30000e+01
 19.10          2.60000e+01
 19.12          2.70000e+01
 19.14          2.50000e+01
 19.16          3.50000e+01
 19.18          3.20000e+01
 19.20          3.20000e+01
 19.22          2.50000e+01
 19.24          1.80000e+01
 19.26          3.40000e+01
 19.28          2.90000e+01
 19.30          2.80000e+01
 19.32          3.30000e+01
 19.34          3.30000e+01
 19.36          2.80000e+01
 19.38          2.80000e+01
 19.40          4.20000e+01
 19.42          3.90000e+01
 19.44          3.20000e+01
 19.46          3.40000e+01
 19.48          2.80000e+01
 19.50          2.50000e+01
 19.52          2.70000e+01
 19.54          3.60000e+01
 19.56          3.10000e+01
 19.58          3.40000e+01
 19.60          4.10000e+01
 19.62          4.00000e+01
 19.64          2.90000e+01
 19.66          2.80000e+01
 19.68          3.80000e+01
 19.70          3.90000e+01
 19.72          4.30000e+01
 19.74          3.80000e+01
 19.76          3.50000e+01
 19.78          3.20000e+01
 19.80          3.20000e+01
 19.82          2.30000e+01
 19.84          3.00000e+01
 19.86          2.70000e+01
 19.88          3.30000e+01
 19.90          1.90000e+01
 19.92          3.10000e+01
 19.94          3.80000e+01
 19.96          3.20000e+01
 19.98          2.80000e+01
 20.00          2.50000e+01
 20.02          2.80000e+01
 20.04          2.90000e+01
 20.06          3.60000e+01
 20.08          3.50000e+01
 20.10          3.30000e+01
 20.12          4.10000e+01
 20.14          3.60000e+01
 20.16          2.80000e+01
 20.18          4.10000e+01
 20.20          3.10000e+01
 20.22          3.20000e+01
 20.24          3.80000e+01
 20.26          3.10000e+01
 20.28          4.00000e+01
 20.30          4.10000e+01
 20.32          2.40000e+01
 20.34          3.40000e+01
 20.36          2.60000e+01
 20.38          2.10000e+01
 20.40          4.20000e+01
 20.42          5.10000e+01
 20.44          5.00000e+01
 20.46          4.00000e+01
 20.48          3.20000e+01
 20.50          3.20000e+01
 20.52          3.70000e+01
 20.54          2.70000e+01
 20.56          3.20000e+01
 20.58          4.50000e+01
 20.60          4.30000e+01
 20.62          2.50000e+01
 20.64          2.30000e+01
 20.66          2.80000e+01
 20.68          3.60000e+01
 20.70          2.70000e+01
 20.72          3.40000e+01
 20.74          4.20000e+01
 20.76          4.00000e+01
 20.78          5.10000e+01
 20.80          4.00000e+01
 20.82          3.80000e+01
 20.84          3.10000e+01
 20.86          3.10000e+01
 20.88          3.40000e+01
 20.90          4.00000e+01
 20.92          4.20000e+01
 20.94          4.00000e+01
 20.96          3.70000e+01
 20.98          2.40000e+01
 21.00          3.50000e+01
 21.02          2.00000e+01
 21.04          3.10000e+01
 21.06          3.20000e+01
 21.08          2.60000e+01
 21.10          4.00000e+01
 21.12          3.80000e+01
 21.14          3.70000e+01
 21.16          2.50000e+01
 21.18          2.70000e+01
 21.20          3.20000e+01
 21.22          3.30000e+01
 21.24          4.50000e+01
 21.26          4.10000e+01
 21.28          4.20000e+01
 21.30          3.40000e+01
 21.32          2.60000e+01
 21.34          3.10000e+01
 21.36          3.80000e+01
 21.38          2.40000e+01
 21.40          3.70000e+01
 21.42          3.60000e+01
 21.44          2.20000e+01
 21.46          2.40000e+01
 21.48          3.60000e+01
 21.50          3.10000e+01
 21.52          3.40000e+01
 21.54          3.70000e+01
 21.56          4.30000e+01
 21.58          3.40000e+01
 21.60          3.70000e+01
 21.62          3.90000e+01
 21.64          3.40000e+01
 21.66          2.80000e+01
 21.68          3.70000e+01
 21.70          4.30000e+01
 21.72          3.50000e+01
 21.74          2.40000e+01
 21.76          2.50000e+01
 21.78          2.90000e+01
 21.80          4.00000e+01
 21.82          3.70000e+01
 21.84          3.50000e+01
 21.86          3.90000e+01
 21.88          3.50000e+01
 21.90          3.90000e+01
 21.92          3.80000e+01
 21.94          3.30000e+01
 21.96          3.90000e+01
 21.98          2.90000e+01
 22.00          3.00000e+01
 22.02          2.80000e+01
 22.04          3.40000e+01
 22.06          2.80000e+01
 22.08          4.20000e+01
 22.10          2.60000e+01
 22.12          3.70000e+01
 22.14          3.90000e+01
 22.16          3.20000e+01
 22.18          3.90000e+01
 22.20          3.70000e+01
 22.22          3.50000e+01
 22.24          4.50000e+01
 22.26          3.90000e+01
 22.28          4.20000e+01
 22.30          3.90000e+01
 22.32          3.20000e+01
 22.34          3.10000e+01
 22.36          3.30000e+01
 22.38          2.90000e+01
 22.40          2.80000e+01
 22.42          3.70000e+01
 22.44          3.70000e+01
 22.46          2.90000e+01
 22.48          4.20000e+01
 22.50          3.60000e+01
 22.52          2.70000e+01
 22.54          4.50000e+01
 22.56          3.30000e+01
 22.58          4.10000e+01
 22.60          4.10000e+01
 22.62          4.10000e+01
 22.64          3.40000e+01
 22.66          3.30000e+01
 22.68          3.60000e+01
 22.70          3.60000e+01
 22.72          3.50000e+01
 22.74          3.20000e+01
 22.76          3.50000e+01
 22.78          4.20000e+01
 22.80          4.60000e+01
 22.82          3.50000e+01
 22.84          3.70000e+01
 22.86          3.30000e+01
 22.88          4.90000e+01
 22.90          4.00000e+01
 22.92          3.30000e+01
 22.94          3.30000e+01
 22.96          5.60000e+01
 22.98          4.20000e+01
 23.00          3.80000e+01
 23.02          4.40000e+01
 23.04          3.30000e+01
 23.06          3.20000e+01
 23.08          3.00000e+01
 23.10          4.60000e+01
 23.12          3.50000e+01
 23.14          2.60000e+01
 23.16          2.80000e+01
 23.18          3.00000e+01
 23.20          4.10000e+01
 23.22          3.60000e+01
 23.24          3.50000e+01
 23.26          3.30000e+01
 23.28          1.90000e+01
 23.30          3.90000e+01
 23.32          3.00000e+01
 23.34          2.80000e+01
 23.36          2.70000e+01
 23.38          2.80000e+01
 23.40          3.40000e+01
 23.42          3.80000e+01
 23.44          4.80000e+01
 23.46          3.00000e+01
 23.48          2.70000e+01
 23.50          2.90000e+01
 23.52          3.20000e+01
 23.54          3.10000e+01
 23.56          2.70000e+01
 23.58          2.50000e+01
 23.60          3.00000e+01
 23.62          4.30000e+01
 23.64          4.30000e+01
 23.66          4.60000e+01
 23.68          5.20000e+01
 23.70          3.50000e+01
 23.72          3.30000e+01
 23.74          3.40000e+01
 23.76          2.20000e+01
 23.78          3.50000e+01
 23.80          4.90000e+01
 23.82          3.80000e+01
 23.84          3.10000e+01
 23.86          3.10000e+01
 23.88          5.10000e+01
 23.90          4.20000e+01
 23.92          4.00000e+01
 23.94          2.70000e+01
 23.96          4.40000e+01
 23.98          4.70000e+01
 24.00          3.60000e+01
 24.02          2.60000e+01
 24.04          3.40000e+01
 24.06          3.50000e+01
 24.08          3.00000e+01
 24.10          3.30000e+01
 24.12          3.80000e+01
 24.14          2.60000e+01
 24.16          3.30000e+01
 24.18          2.70000e+01
 24.20          3.70000e+01
 24.22          5.20000e+01
 24.24          2.30000e+01
 24.26          2.60000e+01
 24.28          2.90000e+01
 24.30          3.90000e+01
 24.32          4.90000e+01
 24.34          3.20000e+01
 24.36          3.00000e+01
 24.38          3.00000e+01
 24.40          2.90000e+01
 24.42          3.30000e+01
 24.44          3.40000e+01
 24.46          4.00000e+01
 24.48          3.50000e+01
 24.50          2.70000e+01
 24.52          3.00000e+01
 24.54          2.90000e+01
 24.56          4.40000e+01
 24.58          2.70000e+01
 24.60          3.20000e+01
 24.62          3.30000e+01
 24.64          2.90000e+01
 24.66          4.60000e+01
 24.68          4.30000e+01
 24.70          3.90000e+01
 24.72          4.40000e+01
 24.74          3.40000e+01
 24.76          4.30000e+01
 24.78          3.20000e+01
 24.80          3.40000e+01
 24.82          3.60000e+01
 24.84          3.80000e+01
 24.86          3.40000e+01
 24.88          3.40000e+01
 24.90          3.10000e+01
 24.92          2.90000e+01
 24.94          3.00000e+01
 24.96          3.90000e+01
 24.98          3.50000e+01
 25.00          2.80000e+01
 25.02          3.20000e+01
 25.04          4.30000e+01
 25.06          2.80000e+01
 25.08          3.10000e+01
 25.10          3.40000e+01
 25.12          4.30000e+01
 25.14          5.70000e+01
 25.16          4.60000e+01
 25.18          4.20000e+01
 25.20          2.70000e+01
 25.22          4.30000e+01
 25.24          3.70000e+01
 25.26          3.80000e+01
 25.28          3.60000e+01
 25.30          4.30000e+01
 25.32          3.10000e+01
 25.34          4.20000e+01
 25.36          4.40000e+01
 25.38          3.90000e+01
 25.40          4.90000e+01
 25.42          3.80000e+01
 25.44          3.20000e+01
 25.46          4.50000e+01
 25.48          5.30000e+01
 25.50          3.60000e+01
 25.52          3.50000e+01
 25.54          2.60000e+01
 25.56          2.90000e+01
 25.58          3.80000e+01
 25.60          3.90000e+01
 25.62          4.00000e+01
 25.64          4.10000e+01
 25.66          4.10000e+01
 25.68          4.70000e+01
 25.70          3.60000e+01
 25.72          4.10000e+01
 25.74          4.20000e+01
 25.76          4.20000e+01
 25.78          3.40000e+01
 25.80          3.20000e+01
 25.82          2.70000e+01
 25.84          3.20000e+01
 25.86          3.70000e+01
 25.88          3.50000e+01
 25.90          3.50000e+01
 25.92          3.30000e+01
 25.94          3.70000e+01
 25.96          4.50000e+01
 25.98          4.00000e+01
 26.00          3.30000e+01
 26.02          3.70000e+01
 26.04          3.60000e+01
 26.06          3.50000e+01
 26.08          4.30000e+01
 26.10          4.40000e+01
 26.12          4.70000e+01
 26.14          4.90000e+01
 26.16          2.70000e+01
 26.18          4.40000e+01
 26.20          3.80000e+01
 26.22          3.10000e+01
 26.24          3.20000e+01
 26.26          2.80000e+01
 26.28          3.70000e+01
 26.30          3.70000e+01
 26.32          3.80000e+01
 26.34          3.20000e+01
 26.36          3.10000e+01
 26.38          2.80000e+01
 26.40          4.00000e+01
 26.42          3.40000e+01
 26.44          3.30000e+01
 26.46          2.80000e+01
 26.48          3.00000e+01
 26.50          2.40000e+01
 26.52          2.10000e+01
 26.54          2.40000e+01
 26.56          4.50000e+01
 26.58          4.70000e+01
 26.60          3.90000e+01
 26.62          2.70000e+01
 26.64          2.60000e+01
 26.66          2.90000e+01
 26.68          3.80000e+01
 26.70          3.50000e+01
 26.72          3.50000e+01
 26.74          3.60000e+01
 26.76          4.00000e+01
 26.78          1.50000e+01
 26.80          2.80000e+01
 26.82          2.30000e+01
 26.84          3.10000e+01
 26.86          3.70000e+01
 26.88          2.10000e+01
 26.90          1.50000e+01
 26.92          4.10000e+01
 26.94          3.50000e+01
 26.96          3.80000e+01
 26.98          3.20000e+01
 27.00          4.50000e+01
 27.02          3.60000e+01
 27.04          3.10000e+01
 27.06          3.00000e+01
 27.08          3.80000e+01
 27.10          4.90000e+01
 27.12          3.90000e+01
 27.14          2.40000e+01
 27.16          4.10000e+01
 27.18          3.20000e+01
 27.20          2.60000e+01
 27.22          3.80000e+01
 27.24          3.40000e+01
 27.26          4.20000e+01
 27.28          4.00000e+01
 27.30          3.80000e+01
 27.32          3.60000e+01
 27.34          3.20000e+01
 27.36          3.40000e+01
 27.38          3.90000e+01
 27.40          3.30000e+01
 27.42          3.40000e+01
 27.44          3.50000e+01
 27.46          4.10000e+01
 27.48          3.40000e+01
 27.50          3.80000e+01
 27.52          3.80000e+01
 27.54          4.00000e+01
 27.56          4.10000e+01
 27.58          4.30000e+01
 27.60          4.40000e+01
 27.62          2.70000e+01
 27.64          3.50000e+01
 27.66          4.20000e+01
 27.68          5.50000e+01
 27.70          3.60000e+01
 27.72          3.20000e+01
 27.74          2.50000e+01
 27.76          2.90000e+01
 27.78          2.80000e+01
 27.80          3.30000e+01
 27.82          4.10000e+01
 27.84          5.30000e+01
 27.86          3.70000e+01
 27.88          3.70000e+01
 27.90          3.70000e+01
 27.92          3.30000e+01
 27.94          3.60000e+01
 27.96          3.50000e+01
 27.98          2.50000e+01
 28.00          2.60000e+01
 28.02          3.70000e+01
 28.04          3.30000e+01
 28.06          2.90000e+01
 28.08          4.10000e+01
 28.10          4.30000e+01
 28.12          3.90000e+01
 28.14          3.60000e+01
 28.16          4.50000e+01
 28.18          4.10000e+01
 28.20          4.30000e+01
 28.22          3.10000e+01
 28.24          3.40000e+01
 28.26          3.70000e+01
 28.28          3.70000e+01
 28.30          4.60000e+01
 28.32          4.40000e+01
 28.34          3.70000e+01
 28.36          4.60000e+01
 28.38          3.80000e+01
 28.40          4.20000e+01
 28.42          3.90000e+01
 28.44          4.60000e+01
 28.46          4.00000e+01
 28.48          3.90000e+01
 28.50          4.10000e+01
 28.52          4.20000e+01
 28.54          2.40000e+01
 28.56          2.80000e+01
 28.58          4.70000e+01
 28.60          4.10000e+01
 28.62          3.80000e+01
 28.64          3.60000e+01
 28.66          4.20000e+01
 28.68          4.60000e+01
 28.70          4.80000e+01
 28.72          5.60000e+01
 28.74          4.20000e+01
 28.76          2.60000e+01
 28.78          3.10000e+01
 28.80          4.40000e+01
 28.82          4.80000e+01
 28.84          3.60000e+01
 28.86          3.40000e+01
 28.88          4.40000e+01
 28.90          4.10000e+01
 28.92          4.50000e+01
 28.94          3.60000e+01
 28.96          4.10000e+01
 28.98          4.40000e+01
 29.00          3.30000e+01
 29.02          3.80000e+01
 29.04          3.90000e+01
 29.06          2.70000e+01
 29.08          4.40000e+01
 29.10          4.00000e+01
 29.12          5.40000e+01
 29.14          4.70000e+01
 29.16          3.70000e+01
 29.18          4.00000e+01
 29.20          3.20000e+01
 29.22          4.30000e+01
 29.24          4.50000e+01
 29.26          4.10000e+01
 29.28          3.30000e+01
 29.30          3.50000e+01
 29.32          3.80000e+01
 29.34          4.60000e+01
 29.36          4.80000e+01
 29.38          4.40000e+01
 29.40          3.90000e+01
 29.42          3.30000e+01
 29.44          2.90000e+01
 29.46          3.00000e+01
 29.48          2.90000e+01
 29.50          2.90000e+01
 29.52          4.10000e+01
 29.54          2.80000e+01
 29.56          3.10000e+01
 29.58          3.40000e+01
 29.60          3.80000e+01
 29.62          2.50000e+01
 29.64          3.30000e+01
 29.66          4.10000e+01
 29.68          3.50000e+01
 29.70          2.50000e+01
 29.72          4.60000e+01
 29.74          3.50000e+01
 29.76          2.90000e+01
 29.78          3.60000e+01
 29.80          3.00000e+01
 29.82          5.20000e+01
 29.84          4.50000e+01
 29.86          3.80000e+01
 29.88          4.00000e+01
 29.90          4.00000e+01
 29.92          4.90000e+01
 29.94          4.50000e+01
 29.96          3.40000e+01
 29.98          3.50000e+01
 30.00          4.70000e+01
 30.02          2.70000e+01
 30.04          3.90000e+01
 30.06          3.10000e+01
 30.08          4.20000e+01
 30.10          3.90000e+01
 30.12          2.30000e+01
 30.14          4.00000e+01
 30.16          4.00000e+01
 30.18          3.90000e+01
 30.20          3.80000e+01
 30.22          3.60000e+01
 30.24          3.30000e+01
 30.26          4.20000e+01
 30.28          5.20000e+01
 30.30          3.30000e+01
 30.32          3.40000e+01
 30.34          3.00000e+01
 30.36          2.40000e+01
 30.38          3.60000e+01
 30.40          3.00000e+01
 30.42          2.80000e+01
 30.44          1.90000e+01
 30.46          2.40000e+01
 30.48          2.80000e+01
 30.50          2.20000e+01
 30.52          4.00000e+01
 30.54          4.80000e+01
 30.56          3.90000e+01
 30.58          3.80000e+01
 30.60          3.10000e+01
 30.62          3.10000e+01
 30.64          2.80000e+01
 30.66          2.50000e+01
 30.68          3.50000e+01
 30.70          2.60000e+01
 30.72          3.00000e+01
 30.74          3.60000e+01
 30.76          4.30000e+01
 30.78          4.90000e+01
 30.80          3.60000e+01
 30.82          2.90000e+01
 30.84          3.20000e+01
 30.86          4.10000e+01
 30.88          3.30000e+01
 30.90          2.20000e+01
 30.92          2.90000e+01
 30.94          3.50000e+01
 30.96          3.00000e+01
 30.98          3.90000e+01
 31.00          2.70000e+01
 31.02          3.40000e+01
 31.04          3.20000e+01
 31.06          3.60000e+01
 31.08          3.10000e+01
 31.10          3.40000e+01
 31.12          3.60000e+01
 31.14          3.00000e+01
 31.16          3.70000e+01
 31.18          3.70000e+01
 31.20          3.40000e+01
 31.22          4.10000e+01
 31.24          4.50000e+01
 31.26          3.00000e+01
 31.28          2.10000e+01
 31.30          3.30000e+01
 31.32          3.60000e+01
 31.34          2.30000e+01
 31.36          3.40000e+01
 31.38          4.00000e+01
 31.40          3.70000e+01
 31.42          2.30000e+01
 31.44          2.90000e+01
 31.46          3.80000e+01
 31.48          2.80000e+01
 31.50          4.60000e+01
 31.52          4.00000e+01
 31.54          1.90000e+01
 31.56          2.40000e+01
 31.58          3.80000e+01
 31.60          4.10000e+01
 31.62          3.30000e+01
 31.64          3.30000e+01
 31.66          3.90000e+01
 31.68          3.10000e+01
 31.70          2.70000e+01
 31.72          3.00000e+01
 31.74          3.00000e+01
 31.76          2.50000e+01
 31.78          2.60000e+01
 31.80          3.70000e+01
 31.82          3.80000e+01
 31.84          2.80000e+01
 31.86          3.60000e+01
 31.88          2.80000e+01
 31.90          2.90000e+01
 31.92          3.60000e+01
 31.94          3.20000e+01
 31.96          3.80000e+01
 31.98          4.00000e+01
 32.00          3.40000e+01
 32.02          2.30000e+01
 32.04          3.60000e+01
 32.06          3.70000e+01
 32.08          4.30000e+01
 32.10          4.20000e+01
 32.12          3.50000e+01
 32.14          3.30000e+01
 32.16          2.70000e+01
 32.18          3.50000e+01
 32.20          3.80000e+01
 32.22          3.40000e+01
 32.24          2.90000e+01
 32.26          2.50000e+01
 32.28          3.70000e+01
 32.30          3.00000e+01
 32.32          3.00000e+01
 32.34          2.90000e+01
 32.36          2.60000e+01
 32.38          3.20000e+01
 32.40          4.40000e+01
 32.42          3.80000e+01
 32.44          2.90000e+01
 32.46          2.10000e+01
 32.48          3.60000e+01
 32.50          2.70000e+01
 32.52          3.60000e+01
 32.54          2.70000e+01
 32.56          3.00000e+01
 32.58          3.30000e+01
 32.60          2.50000e+01
 32.62          3.50000e+01
 32.64          2.60000e+01
 32.66          4.40000e+01
 32.68          3.30000e+01
 32.70          2.50000e+01
 32.72          2.40000e+01
 32.74          3.10000e+01
 32.76          3.40000e+01
 32.78          3.30000e+01
 32.80          3.50000e+01
 32.82          3.10000e+01
 32.84          4.00000e+01
 32.86          3.20000e+01
 32.88          3.10000e+01
 32.90          2.70000e+01
 32.92          4.50000e+01
 32.94          3.10000e+01
 32.96          2.60000e+01
 32.98          3.50000e+01
 33.00          3.10000e+01
 33.02          4.20000e+01
 33.04          4.50000e+01
 33.06          2.80000e+01
 33.08          3.10000e+01
 33.10          3.30000e+01
 33.12          3.20000e+01
 33.14          3.00000e+01
 33.16          2.60000e+01
 33.18          2.30000e+01
 33.20          2.50000e+01
 33.22          3.40000e+01
 33.24          4.20000e+01
 33.26          2.60000e+01
 33.28          3.60000e+01
 33.30          3.90000e+01
 33.32          4.40000e+01
 33.34          3.80000e+01
 33.36          3.70000e+01
 33.38          3.10000e+01
 33.40          4.00000e+01
 33.42          3.10000e+01
 33.44          2.30000e+01
 33.46          2.50000e+01
 33.48          3.30000e+01
 33.50          2.70000e+01
 33.52          5.00000e+01
 33.54          2.90000e+01
 33.56          2.00000e+01
 33.58          2.70000e+01
 33.60          3.30000e+01
 33.62          3.60000e+01
 33.64          4.30000e+01
 33.66          2.90000e+01
 33.68          3.00000e+01
 33.70          2.80000e+01
 33.72          3.30000e+01
 33.74          3.10000e+01
 33.76          2.50000e+01
 33.78          2.40000e+01
 33.80          3.20000e+01
 33.82          2.90000e+01
 33.84          3.20000e+01
 33.86          3.30000e+01
 33.88          3.20000e+01
 33.90          4.00000e+01
 33.92          4.40000e+01
 33.94          4.20000e+01
 33.96          3.70000e+01
 33.98          2.70000e+01
 34.00          3.50000e+01
 34.02          3.50000e+01
 34.04          2.90000e+01
 34.06          2.40000e+01
 34.08          2.90000e+01
 34.10          3.20000e+01
 34.12          2.00000e+01
 34.14          3.90000e+01
 34.16          4.40000e+01
 34.18          3.40000e+01
 34.20          4.10000e+01
 34.22          3.50000e+01
 34.24          2.80000e+01
 34.26          3.10000e+01
 34.28          2.70000e+01
 34.30          2.80000e+01
 34.32          3.00000e+01
 34.34          3.00000e+01
 34.36          2.50000e+01
 34.38          3.70000e+01
 34.40          3.50000e+01
 34.42          4.30000e+01
 34.44          3.60000e+01
 34.46          2.70000e+01
 34.48          3.30000e+01
 34.50          4.20000e+01
 34.52          3.20000e+01
 34.54          2.80000e+01
 34.56          3.40000e+01
 34.58          4.10000e+01
 34.60          3.20000e+01
 34.62          2.90000e+01
 34.64          3.70000e+01
 34.66          3.10000e+01
 34.68          3.00000e+01
 34.70          3.10000e+01
 34.72          3.20000e+01
 34.74          2.40000e+01
 34.76          3.60000e+01
 34.78          3.80000e+01
 34.80          3.40000e+01
 34.82          3.80000e+01
 34.84          3.80000e+01
 34.86          3.10000e+01
 34.88          3.40000e+01
 34.90          3.10000e+01
 34.92          3.90000e+01
 34.94          2.90000e+01
 34.96          3.10000e+01
 34.98          2.80000e+01
 35.00          3.50000e+01
 35.02          3.20000e+01
 35.04          3.20000e+01
 35.06          3.90000e+01
 35.08          3.60000e+01
 35.10          3.40000e+01
 35.12          4.70000e+01
 35.14          2.90000e+01
 35.16          3.70000e+01
 35.18          3.10000e+01
 35.20          4.20000e+01
 35.22          3.80000e+01
 35.24          3.80000e+01
 35.26          3.00000e+01
 35.28          2.20000e+01
 35.30          2.90000e+01
 35.32          3.20000e+01
 35.34          3.10000e+01
 35.36          3.30000e+01
 35.38          3.40000e+01
 35.40          2.20000e+01
 35.42          2.70000e+01
 35.44          2.70000e+01
 35.46          2.70000e+01
 35.48          2.70000e+01
 35.50          3.50000e+01
 35.52          4.50000e+01
 35.54          3.10000e+01
 35.56          1.70000e+01
 35.58          3.20000e+01
 35.60          4.50000e+01
 35.62          3.80000e+01
 35.64          3.70000e+01
 35.66          3.20000e+01
 35.68          3.00000e+01
 35.70          2.20000e+01
 35.72          3.80000e+01
 35.74          3.90000e+01
 35.76          4.20000e+01
 35.78          3.60000e+01
 35.80          2.60000e+01
 35.82          2.50000e+01
 35.84          3.60000e+01
 35.86          3.00000e+01
 35.88          3.30000e+01
 35.90          3.10000e+01
 35.92          3.50000e+01
 35.94          3.20000e+01
 35.96          3.00000e+01
 35.98          4.70000e+01
 36.00          4.60000e+01
 36.02          2.60000e+01
 36.04          2.70000e+01
 36.06          2.80000e+01
 36.08          3.30000e+01
 36.10          4.10000e+01
 36.12          3.60000e+01
 36.14          3.70000e+01
 36.16          2.70000e+01
 36.18          2.90000e+01
 36.20          2.50000e+01
 36.22          3.10000e+01
 36.24          3.90000e+01
 36.26          2.20000e+01
 36.28          3.10000e+01
 36.30          3.30000e+01
 36.32          4.00000e+01
 36.34          3.10000e+01
 36.36          3.80000e+01
 36.38          3.40000e+01
 36.40          3.40000e+01
 36.42          3.20000e+01
 36.44          2.50000e+01
 36.46          4.50000e+01
 36.48          3.30000e+01
 36.50          2.30000e+01
 36.52          2.70000e+01
 36.54          2.80000e+01
 36.56          2.70000e+01
 36.58          2.60000e+01
 36.60          2.80000e+01
 36.62          2.30000e+01
 36.64          3.60000e+01
 36.66          3.00000e+01
 36.68          2.90000e+01
 36.70          2.90000e+01
 36.72          3.50000e+01
 36.74          3.10000e+01
 36.76          3.40000e+01
 36.78          3.60000e+01
 36.80          4.00000e+01
 36.82          3.80000e+01
 36.84          2.90000e+01
 36.86          2.60000e+01
 36.88          2.60000e+01
 36.90          3.90000e+01
 36.92          3.80000e+01
 36.94          3.60000e+01
 36.96          3.10000e+01
 36.98          3.30000e+01
 37.00          3.30000e+01
 37.02          4.40000e+01
 37.04          4.90000e+01
 37.06          3.20000e+01
 37.08          2.60000e+01
 37.10          3.10000e+01
 37.12          3.20000e+01
 37.14          4.00000e+01
 37.16          4.30000e+01
 37.18          3.90000e+01
 37.20          3.80000e+01
 37.22          2.20000e+01
 37.24          2.70000e+01
 37.26          3.00000e+01
 37.28          2.70000e+01
 37.30          2.60000e+01
 37.32          3.10000e+01
 37.34          3.30000e+01
 37.36          3.40000e+01
 37.38          2.80000e+01
 37.40          2.70000e+01
 37.42          3.20000e+01
 37.44          4.10000e+01
 37.46          3.20000e+01
 37.48          2.30000e+01
 37.50          2.40000e+01
 37.52          3.10000e+01
 37.54          3.50000e+01
 37.56          3.10000e+01
 37.58          1.80000e+01
 37.60          3.20000e+01
 37.62          3.10000e+01
 37.64          3.50000e+01
 37.66          3.40000e+01
 37.68          4.50000e+01
 37.70          3.60000e+01
 37.72          2.90000e+01
 37.74          2.50000e+01
 37.76          2.80000e+01
 37.78          3.40000e+01
 37.80          3.70000e+01
 37.82          3.20000e+01
 37.84          2.90000e+01
 37.86          3.30000e+01
 37.88          2.40000e+01
 37.90          2.50000e+01
 37.92          2.10000e+01
 37.94          2.90000e+01
 37.96          3.20000e+01
 37.98          3.60000e+01
 38.00          4.30000e+01
 38.02          2.80000e+01
 38.04          2.40000e+01
 38.06          3.00000e+01
 38.08          3.70000e+01
 38.10          2.90000e+01
 38.12          3.00000e+01
 38.14          2.80000e+01
 38.16          3.40000e+01
 38.18          2.80000e+01
 38.20          2.80000e+01
 38.22          1.70000e+01
 38.24          2.50000e+01
 38.26          3.60000e+01
 38.28          3.80000e+01
 38.30          3.70000e+01
 38.32          3.10000e+01
 38.34          3.60000e+01
 38.36          2.90000e+01
 38.38          4.40000e+01
 38.40          2.80000e+01
 38.42          3.00000e+01
 38.44          3.30000e+01
 38.46          3.30000e+01
 38.48          2.80000e+01
 38.50          4.00000e+01
 38.52          4.60000e+01
 38.54          5.40000e+01
 38.56          3.90000e+01
 38.58          3.70000e+01
 38.60          2.60000e+01
 38.62          2.30000e+01
 38.64          3.30000e+01
 38.66          2.60000e+01
 38.68          2.60000e+01
 38.70          2.60000e+01
 38.72          4.20000e+01
 38.74          3.10000e+01
 38.76          3.70000e+01
 38.78          2.70000e+01
 38.80          2.20000e+01
 38.82          2.60000e+01
 38.84          3.20000e+01
 38.86          2.80000e+01
 38.88          2.50000e+01
 38.90          2.90000e+01
 38.92          3.70000e+01
 38.94          1.90000e+01
 38.96          2.60000e+01
 38.98          2.90000e+01
 39.00          2.50000e+01
 39.02          3.00000e+01
 39.04          2.30000e+01
 39.06          1.70000e+01
 39.08          1.50000e+01
 39.10          2.30000e+01
 39.12          5.20000e+01
 39.14          3.40000e+01
 39.16          2.00000e+01
 39.18          2.70000e+01
 39.20          2.70000e+01
 39.22          2.80000e+01
 39.24          3.70000e+01
 39.26          3.00000e+01
 39.28          3.40000e+01
 39.30          3.80000e+01
 39.32          3.20000e+01
 39.34          2.50000e+01
 39.36          3.80000e+01
 39.38          2.00000e+01
 39.40          3.70000e+01
 39.42          3.10000e+01
 39.44          2.80000e+01
 39.46          3.30000e+01
 39.48          3.70000e+01
 39.50          2.80000e+01
 39.52          2.00000e+01
 39.54          2.60000e+01
 39.56          2.20000e+01
 39.58          3.70000e+01
 39.60          3.00000e+01
 39.62          2.80000e+01
 39.64          2.20000e+01
 39.66          3.50000e+01
 39.68          4.00000e+01
 39.70          3.20000e+01
 39.72          2.30000e+01
 39.74          3.30000e+01
 39.76          3.60000e+01
 39.78          3.00000e+01
 39.80          3.60000e+01
 39.82          2.60000e+01
 39.84          2.50000e+01
 39.86          3.80000e+01
 39.88          3.60000e+01
 39.90          3.50000e+01
 39.92          4.10000e+01
 39.94          3.40000e+01
 39.96          3.40000e+01
 39.98          4.90000e+01
 40.00          3.90000e+01
 40.02          3.20000e+01
 40.04          3.00000e+01
 40.06          3.80000e+01
 40.08          2.70000e+01
 40.10          3.40000e+01
 40.12          2.90000e+01
 40.14          4.00000e+01
 40.16          3.70000e+01
 40.18          2.60000e+01
 40.20          3.20000e+01
 40.22          3.30000e+01
 40.24          3.20000e+01
 40.26          2.80000e+01
 40.28          3.80000e+01
 40.30          2.50000e+01
 40.32          2.40000e+01
 40.34          3.80000e+01
 40.36          3.80000e+01
 40.38          3.00000e+01
 40.40          3.70000e+01
 40.42          4.30000e+01
 40.44          2.90000e+01
 40.46          3.10000e+01
 40.48          3.40000e+01
 40.50          2.80000e+01
 40.52          2.60000e+01
 40.54          2.40000e+01
 40.56          2.70000e+01
 40.58          4.10000e+01
 40.60          4.10000e+01
 40.62          4.20000e+01
 40.64          3.30000e+01
 40.66          2.50000e+01
 40.68          3.20000e+01
 40.70          3.50000e+01
 40.72          2.60000e+01
 40.74          2.40000e+01
 40.76          1.90000e+01
 40.78          3.60000e+01
 40.80          4.10000e+01
 40.82          2.90000e+01
 40.84          3.20000e+01
 40.86          2.90000e+01
 40.88          4.00000e+01
 40.90          4.10000e+01
 40.92          2.60000e+01
 40.94          2.10000e+01
 40.96          2.20000e+01
 40.98          3.50000e+01
 41.00          2.70000e+01
 41.02          3.10000e+01
 41.04          2.60000e+01
 41.06          3.00000e+01
 41.08          2.80000e+01
 41.10          2.80000e+01
 41.12          3.10000e+01
 41.14          3.30000e+01
 41.16          3.10000e+01
 41.18          3.60000e+01
 41.20          2.50000e+01
 41.22          2.30000e+01
 41.24          2.50000e+01
 41.26          2.60000e+01
 41.28          2.20000e+01
 41.30          3.80000e+01
 41.32          3.40000e+01
 41.34          2.90000e+01
 41.36          2.40000e+01
 41.38          3.50000e+01
 41.40          3.30000e+01
 41.42          3.50000e+01
 41.44          2.80000e+01
 41.46          3.80000e+01
 41.48          4.80000e+01
 41.50          3.20000e+01
 41.52          3.50000e+01
 41.54          3.20000e+01
 41.56          2.80000e+01
 41.58          2.60000e+01
 41.60          2.90000e+01
 41.62          2.70000e+01
 41.64          2.80000e+01
 41.66          3.40000e+01
 41.68          2.40000e+01
 41.70          2.20000e+01
 41.72          2.80000e+01
 41.74          3.10000e+01
 41.76          3.30000e+01
 41.78          3.40000e+01
 41.80          4.60000e+01
 41.82          3.10000e+01
 41.84          2.90000e+01
 41.86          3.80000e+01
 41.88          3.30000e+01
 41.90          3.50000e+01
 41.92          3.30000e+01
 41.94          2.90000e+01
 41.96          2.70000e+01
 41.98          2.70000e+01
 42.00          3.40000e+01
 42.02          4.10000e+01
 42.04          3.70000e+01
 42.06          4.60000e+01
 42.08          4.00000e+01
 42.10          5.20000e+01
 42.12          4.00000e+01
 42.14          3.20000e+01
 42.16          3.50000e+01
 42.18          3.00000e+01
 42.20          3.50000e+01
 42.22          2.40000e+01
 42.24          2.90000e+01
 42.26          3.20000e+01
 42.28          4.30000e+01
 42.30          2.70000e+01
 42.32          3.10000e+01
 42.34          3.00000e+01
 42.36          3.10000e+01
 42.38          3.40000e+01
 42.40          3.30000e+01
 42.42          3.20000e+01
 42.44          2.40000e+01
 42.46          3.10000e+01
 42.48          3.70000e+01
 42.50          3.40000e+01
 42.52          2.40000e+01
 42.54          3.30000e+01
 42.56          3.70000e+01
 42.58          3.10000e+01
 42.60          2.80000e+01
 42.62          2.60000e+01
 42.64          3.40000e+01
 42.66          2.50000e+01
 42.68          4.10000e+01
 42.70          2.10000e+01
 42.72          2.50000e+01
 42.74          2.80000e+01
 42.76          3.40000e+01
 42.78          3.80000e+01
 42.80          3.50000e+01
 42.82          1.90000e+01
 42.84          3.30000e+01
 42.86          3.30000e+01
 42.88          2.80000e+01
 42.90          2.60000e+01
 42.92          2.60000e+01
 42.94          2.20000e+01
 42.96          1.90000e+01
 42.98          2.90000e+01
 43.00          4.50000e+01
 43.02          2.60000e+01
 43.04          2.70000e+01
 43.06          3.10000e+01
 43.08          2.50000e+01
 43.10          3.40000e+01
 43.12          3.20000e+01
 43.14          2.40000e+01
 43.16          4.40000e+01
 43.18          3.90000e+01
 43.20          3.10000e+01
 43.22          1.70000e+01
 43.24          2.10000e+01
 43.26          2.20000e+01
 43.28          2.60000e+01
 43.30          3.50000e+01
 43.32          3.30000e+01
 43.34          3.50000e+01
 43.36          2.80000e+01
 43.38          3.20000e+01
 43.40          3.60000e+01
 43.42          3.20000e+01
 43.44          3.70000e+01
 43.46          3.80000e+01
 43.48          3.00000e+01
 43.50          3.00000e+01
 43.52          3.10000e+01
 43.54          2.30000e+01
 43.56          2.90000e+01
 43.58          2.80000e+01
 43.60          3.60000e+01
 43.62          3.20000e+01
 43.64          2.10000e+01
 43.66          3.00000e+01
 43.68          4.20000e+01
 43.70          3.40000e+01
 43.72          2.80000e+01
 43.74          3.60000e+01
 43.76          3.50000e+01
 43.78          3.20000e+01
 43.80          4.10000e+01
 43.82          3.70000e+01
 43.84          3.60000e+01
 43.86          3.60000e+01
 43.88          2.90000e+01
 43.90          3.20000e+01
 43.92          2.70000e+01
 43.94          2.60000e+01
 43.96          2.20000e+01
 43.98          3.20000e+01
 44.00          3.40000e+01
 44.02          3.40000e+01
 44.04          2.60000e+01
 44.06          1.90000e+01
 44.08          3.70000e+01
 44.10          3.50000e+01
 44.12          3.30000e+01
 44.14          2.80000e+01
 44.16          2.70000e+01
 44.18          4.20000e+01
 44.20          5.00000e+01
 44.22          4.20000e+01
 44.24          2.80000e+01
 44.26          2.40000e+01
 44.28          2.30000e+01
 44.30          4.50000e+01
 44.32          2.80000e+01
 44.34          4.10000e+01
 44.36          3.50000e+01
 44.38          2.30000e+01
 44.40          2.00000e+01
 44.42          2.50000e+01
 44.44          3.00000e+01
 44.46          3.20000e+01
 44.48          2.80000e+01
 44.50          3.00000e+01
 44.52          3.00000e+01
 44.54          2.40000e+01
 44.56          3.40000e+01
 44.58          3.80000e+01
 44.60          2.50000e+01
 44.62          4.20000e+01
 44.64          3.20000e+01
 44.66          1.80000e+01
 44.68          2.40000e+01
 44.70          2.50000e+01
 44.72          2.70000e+01
 44.74          2.60000e+01
 44.76          2.80000e+01
 44.78          4.40000e+01
 44.80          3.10000e+01
 44.82          3.00000e+01
 44.84          4.10000e+01
 44.86          3.90000e+01
 44.88          2.50000e+01
 44.90          2.50000e+01
 44.92          3.70000e+01
 44.94          3.40000e+01
 44.96          3.80000e+01
 44.98          3.30000e+01
 45.00          2.20000e+01
 45.02          2.10000e+01
 45.04          2.60000e+01
 45.06          2.00000e+01
 45.08          3.20000e+01
 45.10          2.40000e+01
 45.12          3.40000e+01
 45.14          3.20000e+01
 45.16          3.20000e+01
 45.18          3.30000e+01
 45.20          3.40000e+01
 45.22          3.70000e+01
 45.24          4.30000e+01
 45.26          3.10000e+01
 45.28          2.70000e+01
 45.30          2.00000e+01
 45.32          2.80000e+01
 45.34          2.40000e+01
 45.36          2.10000e+01
 45.38          3.00000e+01
 45.40          3.80000e+01
 45.42          2.90000e+01
 45.44          1.70000e+01
 45.46          2.70000e+01
 45.48          3.60000e+01
 45.50          2.70000e+01
 45.52          3.00000e+01
 45.54          2.90000e+01
 45.56          2.10000e+01
 45.58          2.80000e+01
 45.60          2.20000e+01
 45.62          2.40000e+01
 45.64          3.80000e+01
 45.66          2.10000e+01
 45.68          2.50000e+01
 45.70          2.80000e+01
 45.72          2.80000e+01
 45.74          2.80000e+01
 45.76          1.90000e+01
 45.78          3.50000e+01
 45.80          3.00000e+01
 45.82          3.10000e+01
 45.84          3.10000e+01
 45.86          3.90000e+01
 45.88          2.90000e+01
 45.90          2.20000e+01
 45.92          2.70000e+01
 45.94          2.60000e+01
 45.96          2.20000e+01
 45.98          2.60000e+01
 46.00          2.80000e+01
 46.02          1.40000e+01
 46.04          1.70000e+01
 46.06          2.20000e+01
 46.08          2.60000e+01
 46.10          3.00000e+01
 46.12          2.40000e+01
 46.14          4.30000e+01
 46.16          3.20000e+01
 46.18          2.70000e+01
 46.20          3.60000e+01
 46.22          2.90000e+01
 46.24          1.90000e+01
 46.26          2.30000e+01
 46.28          1.70000e+01
 46.30          3.60000e+01
 46.32          3.20000e+01
 46.34          2.70000e+01
 46.36          2.70000e+01
 46.38          3.00000e+01
 46.40          2.50000e+01
 46.42          2.90000e+01
 46.44          2.50000e+01
 46.46          4.50000e+01
 46.48          3.20000e+01
 46.50          2.90000e+01
 46.52          3.20000e+01
 46.54          3.20000e+01
 46.56          3.10000e+01
 46.58          2.60000e+01
 46.60          2.90000e+01
 46.62          2.80000e+01
 46.64          3.80000e+01
 46.66          2.80000e+01
 46.68          3.20000e+01
 46.70          3.30000e+01
 46.72          2.70000e+01
 46.74          3.10000e+01
 46.76          3.70000e+01
 46.78          2.80000e+01
 46.80          2.40000e+01
 46.82          2.80000e+01
 46.84          2.10000e+01
 46.86          1.90000e+01
 46.88          1.80000e+01
 46.90          2.80000e+01
 46.92          2.70000e+01
 46.94          3.70000e+01
 46.96          2.20000e+01
 46.98          2.10000e+01
 47.00          2.20000e+01
 47.02          2.40000e+01
 47.04          3.30000e+01
 47.06          3.80000e+01
 47.08          2.50000e+01
 47.10          3.00000e+01
 47.12          2.90000e+01
 47.14          2.50000e+01
 47.16          2.50000e+01
 47.18          2.90000e+01
 47.20          1.60000e+01
 47.22          2.20000e+01
 47.24          1.80000e+01
 47.26          2.00000e+01
 47.28          2.70000e+01
 47.30          1.70000e+01
 47.32          2.90000e+01
 47.34          2.90000e+01
 47.36          2.60000e+01
 47.38          1.50000e+01
 47.40          2.20000e+01
 47.42          3.30000e+01
 47.44          3.00000e+01
 47.46          1.20000e+01
 47.48          2.50000e+01
 47.50          2.50000e+01
 47.52          2.20000e+01
 47.54          3.00000e+01
 47.56          3.10000e+01
 47.58          3.30000e+01
 47.60          3.50000e+01
 47.62          2.50000e+01
 47.64          1.50000e+01
 47.66          2.60000e+01
 47.68          2.90000e+01
 47.70          2.90000e+01
 47.72          3.30000e+01
 47.74          2.60000e+01
 47.76          2.80000e+01
 47.78          2.70000e+01
 47.80          3.40000e+01
 47.82          3.00000e+01
 47.84          3.30000e+01
 47.86          2.80000e+01
 47.88          4.00000e+01
 47.90          2.60000e+01
 47.92          1.90000e+01
 47.94          2.90000e+01
 47.96          2.70000e+01
 47.98          2.70000e+01
 48.00          3.20000e+01
 48.02          3.30000e+01
 48.04          2.30000e+01
 48.06          3.10000e+01
 48.08          2.30000e+01
 48.10          2.60000e+01
 48.12          2.30000e+01
 48.14          1.70000e+01
 48.16          1.80000e+01
 48.18          1.60000e+01
 48.20          2.20000e+01
 48.22          2.20000e+01
 48.24          2.80000e+01
 48.26          2.30000e+01
 48.28          1.90000e+01
 48.30          2.00000e+01
 48.32          2.60000e+01
 48.34          2.50000e+01
 48.36          2.10000e+01
 48.38          2.20000e+01
 48.40          2.90000e+01
 48.42          3.10000e+01
 48.44          3.60000e+01
 48.46          2.80000e+01
 48.48          2.50000e+01
 48.50          3.60000e+01
 48.52          3.50000e+01
 48.54          2.60000e+01
 48.56          2.60000e+01
 48.58          2.90000e+01
 48.60          1.50000e+01
 48.62          1.30000e+01
 48.64          2.20000e+01
 48.66          4.00000e+01
 48.68          3.20000e+01
 48.70          2.30000e+01
 48.72          2.90000e+01
 48.74          3.70000e+01
 48.76          3.70000e+01
 48.78          2.00000e+01
 48.80          2.40000e+01
 48.82          1.50000e+01
 48.84          2.80000e+01
 48.86          2.40000e+01
 48.88          3.20000e+01
 48.90          2.80000e+01
 48.92          2.70000e+01
 48.94          2.90000e+01
 48.96          3.90000e+01
 48.98          2.40000e+01
 49.00          1.30000e+01
 49.02          2.00000e+01
 49.04          2.40000e+01
 49.06          2.20000e+01
 49.08          2.80000e+01
 49.10          2.20000e+01
 49.12          2.10000e+01
 49.14          1.70000e+01
 49.16          2.30000e+01
 49.18          2.40000e+01
 49.20          2.60000e+01
 49.22          2.40000e+01
 49.24          2.60000e+01
 49.26          1.80000e+01
 49.28          2.40000e+01
 49.30          2.00000e+01
 49.32          4.20000e+01
 49.34          3.90000e+01
 49.36          2.40000e+01
 49.38          2.60000e+01
 49.40          2.80000e+01
 49.42          2.70000e+01
 49.44          3.30000e+01
 49.46          1.80000e+01
 49.48          2.50000e+01
 49.50          2.30000e+01
 49.52          2.40000e+01
 49.54          2.00000e+01
 49.56          2.10000e+01
 49.58          2.30000e+01
 49.60          2.80000e+01
 49.62          2.50000e+01
 49.64          2.20000e+01
 49.66          2.40000e+01
 49.68          1.80000e+01
 49.70          2.20000e+01
 49.72          2.00000e+01
 49.74          3.50000e+01
 49.76          2.60000e+01
 49.78          1.40000e+01
 49.80          2.00000e+01
 49.82          2.20000e+01
 49.84          3.30000e+01
 49.86          2.30000e+01
 49.88          1.90000e+01
 49.90          3.60000e+01
 49.92          3.20000e+01
 49.94          1.80000e+01
 49.96          2.40000e+01
 49.98          1.40000e+01
 50.00          2.70000e+01
 50.02          3.40000e+01
 50.04          2.90000e+01
 50.06          2.80000e+01
 50.08          2.40000e+01
 50.10          2.60000e+01
 50.12          2.70000e+01
 50.14          3.20000e+01
 50.16          3.00000e+01
 50.18          2.00000e+01
 50.20          2.30000e+01
 50.22          2.80000e+01
 50.24          3.20000e+01
 50.26          2.80000e+01
 50.28          3.10000e+01
 50.30          2.60000e+01
 50.32          2.50000e+01
 50.34          2.40000e+01
 50.36          2.70000e+01
 50.38          2.60000e+01
 50.40          1.80000e+01
 50.42          2.00000e+01
 50.44          4.30000e+01
 50.46          3.10000e+01
 50.48          2.20000e+01
 50.50          2.20000e+01
 50.52          2.90000e+01
 50.54          2.40000e+01
 50.56          2.70000e+01
 50.58          3.00000e+01
 50.60          3.40000e+01
 50.62          3.20000e+01
 50.64          2.40000e+01
 50.66          3.00000e+01
 50.68          3.10000e+01
 50.70          2.60000e+01
 50.72          2.40000e+01
 50.74          2.50000e+01
 50.76          2.00000e+01
 50.78          2.70000e+01
 50.80          2.70000e+01
 50.82          3.20000e+01
 50.84          2.30000e+01
 50.86          2.40000e+01
 50.88          3.10000e+01
 50.90          3.10000e+01
 50.92          3.10000e+01
 50.94          3.10000e+01
 50.96          2.80000e+01
 50.98          2.40000e+01
 51.00          3.00000e+01
 51.02          3.20000e+01
 51.04          2.80000e+01
 51.06          1.50000e+01
 51.08          2.30000e+01
 51.10          2.70000e+01
 51.12          2.20000e+01
 51.14          2.20000e+01
 51.16          1.60000e+01
 51.18          2.10000e+01
 51.20          2.40000e+01
 51.22          3.00000e+01
 51.24          3.40000e+01
 51.26          1.50000e+01
 51.28          1.50000e+01
 51.30          2.40000e+01
 51.32          2.80000e+01
 51.34          2.00000e+01
 51.36          2.60000e+01
 51.38          3.90000e+01
 51.40          3.60000e+01
 51.42          1.80000e+01
 51.44          2.40000e+01
 51.46          2.20000e+01
 51.48          2.80000e+01
 51.50          2.30000e+01
 51.52          2.50000e+01
 51.54          1.80000e+01
 51.56          3.10000e+01
 51.58          4.20000e+01
 51.60          3.60000e+01
 51.62          3.30000e+01
 51.64          2.50000e+01
 51.66          3.60000e+01
 51.68          4.50000e+01
 51.70          2.00000e+01
 51.72          2.30000e+01
 51.74          3.60000e+01
 51.76          3.20000e+01
 51.78          3.40000e+01
 51.80          2.60000e+01
 51.82          2.70000e+01
 51.84          3.40000e+01
 51.86          2.50000e+01
 51.88          2.20000e+01
 51.90          2.90000e+01
 51.92          3.00000e+01
 51.94          2.40000e+01
 51.96          2.80000e+01
 51.98          2.20000e+01
 52.00          2.10000e+01
 52.02          2.10000e+01
 52.04          2.40000e+01
 52.06          2.10000e+01
 52.08          2.80000e+01
 52.10          3.30000e+01
 52.12          2.40000e+01
 52.14          2.30000e+01
 52.16          2.70000e+01
 52.18          2.80000e+01
 52.20          2.70000e+01
 52.22          2.20000e+01
 52.24          2.80000e+01
 52.26          2.90000e+01
 52.28          1.90000e+01
 52.30          2.60000e+01
 52.32          3.00000e+01
 52.34          2.20000e+01
 52.36          2.80000e+01
 52.38          2.90000e+01
 52.40          1.80000e+01
 52.42          2.90000e+01
 52.44          2.10000e+01
 52.46          2.00000e+01
 52.48          2.40000e+01
 52.50          2.00000e+01
 52.52          2.80000e+01
 52.54          2.90000e+01
 52.56          3.10000e+01
 52.58          1.90000e+01
 52.60          2.60000e+01
 52.62          2.20000e+01
 52.64          2.10000e+01
 52.66          2.30000e+01
 52.68          2.80000e+01
 52.70          2.80000e+01
 52.72          2.10000e+01
 52.74          1.80000e+01
 52.76          2.50000e+01
 52.78          2.50000e+01
 52.80          2.00000e+01
 52.82          2.30000e+01
 52.84          2.90000e+01
 52.86          2.80000e+01
 52.88          3.10000e+01
 52.90          2.00000e+01
 52.92          2.80000e+01
 52.94          3.50000e+01
 52.96          3.10000e+01
 52.98          2.90000e+01
 53.00          1.90000e+01
 53.02          2.90000e+01
 53.04          2.00000e+01
 53.06          1.70000e+01
 53.08          2.10000e+01
 53.10          2.50000e+01
 53.12          2.90000e+01
 53.14          2.50000e+01
 53.16          2.40000e+01
 53.18          2.40000e+01
 53.20          1.50000e+01
 53.22          2.20000e+01
 53.24          2.50000e+01
 53.26          2.40000e+01
 53.28          2.60000e+01
 53.30          2.80000e+01
 53.32          3.40000e+01
 53.34          3.00000e+01
 53.36          2.20000e+01
 53.38          2.60000e+01
 53.40          2.40000e+01
 53.42          1.30000e+01
 53.44          2.20000e+01
 53.46          3.10000e+01
 53.48          2.80000e+01
 53.50          2.50000e+01
 53.52          1.90000e+01
 53.54          2.50000e+01
 53.56          2.80000e+01
 53.58          2.80000e+01
 53.60          3.20000e+01
 53.62          3.20000e+01
 53.64          2.80000e+01
 53.66          2.90000e+01
 53.68          2.80000e+01
 53.70          3.10000e+01
 53.72          2.30000e+01
 53.74          2.00000e+01
 53.76          2.90000e+01
 53.78          2.00000e+01
 53.80          1.70000e+01
 53.82          3.50000e+01
 53.84          1.50000e+01
 53.86          2.40000e+01
 53.88          2.20000e+01
 53.90          2.30000e+01
 53.92          2.70000e+01
 53.94          2.60000e+01
 53.96          2.40000e+01
 53.98          2.70000e+01
 54.00          2.40000e+01
 54.02          2.20000e+01
 54.04          3.00000e+01
 54.06          2.50000e+01
 54.08          2.00000e+01
 54.10          2.10000e+01
 54.12          2.50000e+01
 54.14          2.00000e+01
 54.16          2.20000e+01
 54.18          2.70000e+01
 54.20          2.90000e+01
 54.22          2.10000e+01
 54.24          1.80000e+01
 54.26          2.40000e+01
 54.28          1.80000e+01
 54.30          1.90000e+01
 54.32          2.00000e+01
 54.34          2.20000e+01
 54.36          3.60000e+01
 54.38          3.00000e+01
 54.40          2.40000e+01
 54.42          2.90000e+01
 54.44          2.80000e+01
 54.46          1.60000e+01
 54.48          2.80000e+01
 54.50          3.60000e+01
 54.52          3.20000e+01
 54.54          2.90000e+01
 54.56          1.90000e+01
 54.58          3.20000e+01
 54.60          2.90000e+01
 54.62          4.10000e+01
 54.64          2.50000e+01
 54.66          1.90000e+01
 54.68          2.70000e+01
 54.70          3.80000e+01
 54.72          4.30000e+01
 54.74          2.90000e+01
 54.76          4.50000e+01
 54.78          2.60000e+01
 54.80          2.00000e+01
 54.82          2.20000e+01
 54.84          2.90000e+01
 54.86          2.00000e+01
 54.88          2.50000e+01
 54.90          3.20000e+01
 54.92          2.40000e+01
 54.94          2.70000e+01
 54.96          4.10000e+01
 54.98          2.60000e+01
 55.00          2.30000e+01
 55.02          2.90000e+01
 55.04          1.80000e+01
 55.06          1.50000e+01
 55.08          2.10000e+01
 55.10          2.00000e+01
 55.12          3.60000e+01
 55.14          2.30000e+01
 55.16          1.60000e+01
 55.18          2.10000e+01
 55.20          2.50000e+01
 55.22          1.90000e+01
 55.24          3.70000e+01
 55.26          3.40000e+01
 55.28          2.70000e+01
 55.30          2.60000e+01
 55.32          1.60000e+01
 55.34          3.00000e+01
 55.36          2.90000e+01
 55.38          3.20000e+01
 55.40          3.40000e+01
 55.42          2.70000e+01
 55.44          2.40000e+01
 55.46          2.10000e+01
 55.48          2.00000e+01
 55.50          3.30000e+01
 55.52          2.60000e+01
 55.54          1.80000e+01
 55.56          2.50000e+01
 55.58          1.90000e+01
 55.60          2.70000e+01
 55.62          4.00000e+01
 55.64          3.50000e+01
 55.66          2.40000e+01
 55.68          1.70000e+01
 55.70          3.20000e+01
 55.72          3.10000e+01
 55.74          2.30000e+01
 55.76          2.10000e+01
 55.78          2.30000e+01
 55.80          2.40000e+01
 55.82          2.40000e+01
 55.84          3.00000e+01
 55.86          3.00000e+01
 55.88          2.40000e+01
 55.90          1.80000e+01
 55.92          2.90000e+01
 55.94          1.60000e+01
 55.96          2.70000e+01
 55.98          2.50000e+01
 56.00          2.90000e+01
 56.02          2.80000e+01
 56.04          3.10000e+01
 56.06          3.90000e+01
 56.08          3.60000e+01
 56.10          2.60000e+01
 56.12          2.10000e+01
 56.14          2.90000e+01
 56.16          3.00000e+01
 56.18          2.70000e+01
 56.20          4.10000e+01
 56.22          3.20000e+01
 56.24          2.70000e+01
 56.26          2.20000e+01
 56.28          2.40000e+01
 56.30          2.10000e+01
 56.32          2.30000e+01
 56.34          1.90000e+01
 56.36          1.20000e+01
 56.38          1.90000e+01
 56.40          3.00000e+01
 56.42          2.70000e+01
 56.44          2.30000e+01
 56.46          3.20000e+01
 56.48          2.30000e+01
 56.50          2.80000e+01
 56.52          2.40000e+01
 56.54          2.50000e+01
 56.56          2.30000e+01
 56.58          2.70000e+01
 56.60          3.40000e+01
 56.62          3.50000e+01
 56.64          2.80000e+01
 56.66          1.70000e+01
 56.68          2.40000e+01
 56.70          2.80000e+01
 56.72          2.00000e+01
 56.74          1.40000e+01
 56.76          2.50000e+01
 56.78          2.40000e+01
 56.80          2.40000e+01
 56.82          2.60000e+01
 56.84          1.80000e+01
 56.86          1.80000e+01
 56.88          1.30000e+01
 56.90          2.60000e+01
 56.92          1.80000e+01
 56.94          2.20000e+01
 56.96          2.90000e+01
 56.98          3.20000e+01
 57.00          2.90000e+01
 57.02          2.20000e+01
 57.04          2.40000e+01
 57.06          2.90000e+01
 57.08          2.70000e+01
 57.10          1.90000e+01
 57.12          3.20000e+01
 57.14          2.70000e+01
 57.16          1.80000e+01
 57.18          2.80000e+01
 57.20          2.30000e+01
 57.22          1.60000e+01
 57.24          2.10000e+01
 57.26          2.60000e+01
 57.28          2.40000e+01
 57.30          2.30000e+01
 57.32          1.20000e+01
 57.34          1.60000e+01
 57.36          1.90000e+01
 57.38          1.90000e+01
 57.40          2.70000e+01
 57.42          2.30000e+01
 57.44          2.10000e+01
 57.46          2.50000e+01
 57.48          1.70000e+01
 57.50          1.70000e+01
 57.52          2.00000e+01
 57.54          2.50000e+01
 57.56          2.70000e+01
 57.58          3.00000e+01
 57.60          3.60000e+01
 57.62          3.60000e+01
 57.64          3.10000e+01
 57.66          3.00000e+01
 57.68          2.80000e+01
 57.70          1.40000e+01
 57.72          7.00000e+00
 57.74          1.80000e+01
 57.76          1.90000e+01
 57.78          2.50000e+01
 57.80          2.90000e+01
 57.82          1.80000e+01
 57.84          2.00000e+01
 57.86          1.10000e+01
 57.88          2.60000e+01
 57.90          3.20000e+01
 57.92          2.40000e+01
 57.94          2.40000e+01
 57.96          2.30000e+01
 57.98          2.80000e+01
 58.00          2.50000e+01
 58.02          2.40000e+01
 58.04          1.30000e+01
 58.06          1.50000e+01
 58.08          1.20000e+01
 58.10          2.30000e+01
 58.12          2.20000e+01
 58.14          2.90000e+01
 58.16          2.40000e+01
 58.18          3.70000e+01
 58.20          2.20000e+01
 58.22          2.90000e+01
 58.24          3.40000e+01
 58.26          2.50000e+01
 58.28          1.80000e+01
 58.30          3.10000e+01
 58.32          1.90000e+01
 58.34          2.30000e+01
 58.36          2.50000e+01
 58.38          2.20000e+01
 58.40          2.20000e+01
 58.42          2.40000e+01
 58.44          2.70000e+01
 58.46          4.60000e+01
 58.48          2.10000e+01
 58.50          2.50000e+01
 58.52          2.20000e+01
 58.54          2.70000e+01
 58.56          2.30000e+01
 58.58          2.70000e+01
 58.60          3.50000e+01
 58.62          3.80000e+01
 58.64          2.90000e+01
 58.66          2.60000e+01
 58.68          2.40000e+01
 58.70          1.20000e+01
 58.72          2.30000e+01
 58.74          2.30000e+01
 58.76          2.20000e+01
 58.78          2.70000e+01
 58.80          3.10000e+01
 58.82          3.00000e+01
 58.84          2.70000e+01
 58.86          2.60000e+01
 58.88          2.40000e+01
 58.90          2.80000e+01
 58.92          2.70000e+01
 58.94          2.20000e+01
 58.96          2.80000e+01
 58.98          2.20000e+01
 59.00          2.60000e+01
 59.02          2.30000e+01
 59.04          2.80000e+01
 59.06          3.30000e+01
 59.08          2.90000e+01
 59.10          1.30000e+01
 59.12          1.50000e+01
 59.14          2.20000e+01
 59.16          1.50000e+01
 59.18          2.40000e+01
 59.20          2.60000e+01
 59.22          1.90000e+01
 59.24          1.80000e+01
 59.26          1.60000e+01
 59.28          2.20000e+01
 59.30          2.10000e+01
 59.32          3.40000e+01
 59.34          1.50000e+01
 59.36          2.00000e+01
 59.38          2.80000e+01
 59.40          2.40000e+01
 59.42          2.40000e+01
 59.44          2.30000e+01
 59.46          1.30000e+01
 59.48          2.20000e+01
 59.50          2.30000e+01
 59.52          1.80000e+01
 59.54          1.80000e+01
 59.56          2.20000e+01
 59.58          1.80000e+01
 59.60          2.70000e+01
 59.62          2.10000e+01
 59.64          2.20000e+01
 59.66          1.90000e+01
 59.68          1.40000e+01
 59.70          1.70000e+01
 59.72          2.10000e+01
 59.74          2.10000e+01
 59.76          2.20000e+01
 59.78          3.40000e+01
 59.80          2.00000e+01
 59.82          3.10000e+01
 59.84          2.30000e+01
 59.86          2.40000e+01
 59.88          3.30000e+01
 59.90          2.50000e+01
 59.92          1.80000e+01
 59.94          1.10000e+01
 59.96          1.90000e+01
 59.98          2.90000e+01
 60.00          1.70000e+01
 60.02          1.00000e+01
 60.04          1.50000e+01
 60.06          1.90000e+01
 60.08          2.00000e+01
 60.10          1.90000e+01
 60.12          3.20000e+01
 60.14          2.00000e+01
 60.16          1.50000e+01
 60.18          1.70000e+01
 60.20          1.80000e+01
 60.22          2.00000e+01
 60.24          2.90000e+01
 60.26          3.30000e+01
 60.28          3.00000e+01
 60.30          1.70000e+01
 60.32          2.00000e+01
 60.34          2.00000e+01
 60.36          1.70000e+01
 60.38          2.10000e+01
 60.40          1.30000e+01
 60.42          2.10000e+01
 60.44          2.00000e+01
 60.46          2.50000e+01
 60.48          3.20000e+01
 60.50          2.90000e+01
 60.52          2.20000e+01
 60.54          2.00000e+01
 60.56          2.90000e+01
 60.58          1.50000e+01
 60.60          2.50000e+01
 60.62          2.20000e+01
 60.64          1.60000e+01
 60.66          2.20000e+01
 60.68          2.20000e+01
 60.70          3.20000e+01
 60.72          2.60000e+01
 60.74          2.50000e+01
 60.76          3.20000e+01
 60.78          2.50000e+01
 60.80          2.20000e+01
 60.82          1.80000e+01
 60.84          2.30000e+01
 60.86          3.10000e+01
 60.88          1.50000e+01
 60.90          1.50000e+01
 60.92          2.50000e+01
 60.94          3.00000e+01
 60.96          2.90000e+01
 60.98          2.80000e+01
 61.00          2.30000e+01
 61.02          2.00000e+01
 61.04          2.00000e+01
 61.06          2.10000e+01
 61.08          2.00000e+01
 61.10          1.80000e+01
 61.12          2.30000e+01
 61.14          2.30000e+01
 61.16          1.60000e+01
 61.18          1.70000e+01
 61.20          3.50000e+01
 61.22          2.90000e+01
 61.24          2.60000e+01
 61.26          2.20000e+01
 61.28          2.30000e+01
 61.30          2.80000e+01
 61.32          2.70000e+01
 61.34          3.40000e+01
 61.36          3.40000e+01
 61.38          2.40000e+01
 61.40          1.80000e+01
 61.42          1.90000e+01
 61.44          2.60000e+01
 61.46          2.50000e+01
 61.48          1.80000e+01
 61.50          1.70000e+01
 61.52          1.80000e+01
 61.54          1.80000e+01
 61.56          2.20000e+01
 61.58          2.90000e+01
 61.60          2.10000e+01
 61.62          2.10000e+01
 61.64          2.10000e+01
 61.66          2.20000e+01
 61.68          2.00000e+01
 61.70          1.90000e+01
 61.72          1.90000e+01
 61.74          2.20000e+01
 61.76          3.00000e+01
 61.78          2.40000e+01
 61.80          2.50000e+01
 61.82          3.00000e+01
 61.84          1.90000e+01
 61.86          1.70000e+01
 61.88          1.80000e+01
 61.90          2.40000e+01
 61.92          3.10000e+01
 61.94          3.20000e+01
 61.96          2.10000e+01
 61.98          1.90000e+01
 62.00          2.30000e+01
 62.02          1.90000e+01
 62.04          2.00000e+01
 62.06          2.40000e+01
 62.08          2.80000e+01
 62.10          2.80000e+01
 62.12          2.00000e+01
 62.14          1.30000e+01
 62.16          1.90000e+01
 62.18          2.30000e+01
 62.20          2.00000e+01
 62.22          2.10000e+01
 62.24          2.70000e+01
 62.26          2.90000e+01
 62.28          2.50000e+01
 62.30          1.20000e+01
 62.32          1.90000e+01
 62.34          2.30000e+01
 62.36          2.30000e+01
 62.38          1.80000e+01
 62.40          3.60000e+01
 62.42          3.20000e+01
 62.44          1.70000e+01
 62.46          1.60000e+01
 62.48          2.40000e+01
 62.50          2.20000e+01
 62.52          2.20000e+01
 62.54          1.40000e+01
 62.56          2.10000e+01
 62.58          1.90000e+01
 62.60          2.40000e+01
 62.62          2.20000e+01
 62.64          2.00000e+01
 62.66          1.60000e+01
 62.68          2.40000e+01
 62.70          2.70000e+01
 62.72          3.30000e+01
 62.74          2.20000e+01
 62.76          3.70000e+01
 62.78          2.90000e+01
 62.80          2.30000e+01
 62.82          1.60000e+01
 62.84          2.00000e+01
 62.86          2.40000e+01
 62.88          1.80000e+01
 62.90          1.80000e+01
 62.92          2.30000e+01
 62.94          2.30000e+01
 62.96          2.20000e+01
 62.98          1.60000e+01
 63.00          1.70000e+01
 63.02          2.40000e+01
 63.04          3.00000e+01
 63.06          3.10000e+01
 63.08          2.70000e+01
 63.10          2.50000e+01
 63.12          2.00000e+01
 63.14          2.30000e+01
 63.16          1.90000e+01
 63.18          1.80000e+01
 63.20          1.40000e+01
 63.22          1.80000e+01
 63.24          3.40000e+01
 63.26          3.00000e+01
 63.28          2.20000e+01
 63.30          2.40000e+01
 63.32          2.40000e+01
 63.34          2.00000e+01
 63.36          2.10000e+01
 63.38          2.10000e+01
 63.40          2.30000e+01
 63.42          1.80000e+01
 63.44          2.70000e+01
 63.46          2.60000e+01
 63.48          2.60000e+01
 63.50          1.80000e+01
 63.52          2.10000e+01
 63.54          2.50000e+01
 63.56          1.20000e+01
 63.58          2.20000e+01
 63.60          3.00000e+01
 63.62          2.10000e+01
 63.64          2.20000e+01
 63.66          1.40000e+01
 63.68          1.80000e+01
 63.70          1.90000e+01
 63.72          1.80000e+01
 63.74          1.60000e+01
 63.76          1.70000e+01
 63.78          2.40000e+01
 63.80          2.50000e+01
 63.82          2.70000e+01
 63.84          2.10000e+01
 63.86          2.80000e+01
 63.88          3.50000e+01
 63.90          3.20000e+01
 63.92          2.40000e+01
 63.94          1.40000e+01
 63.96          2.10000e+01
 63.98          2.70000e+01
 64.00          2.30000e+01
 64.02          2.50000e+01
 64.04          2.10000e+01
 64.06          1.90000e+01
 64.08          9.00000e+00
 64.10          1.50000e+01
 64.12          2.60000e+01
 64.14          3.40000e+01
 64.16          1.90000e+01
 64.18          2.40000e+01
 64.20          2.00000e+01
 64.22          2.60000e+01
 64.24          2.00000e+01
 64.26          1.40000e+01
 64.28          1.90000e+01
 64.30          2.30000e+01
 64.32          1.30000e+01
 64.34          2.70000e+01
 64.36          2.50000e+01
 64.38          2.80000e+01
 64.40          1.90000e+01
 64.42          2.60000e+01
 64.44          1.90000e+01
 64.46          1.50000e+01
 64.48          1.60000e+01
 64.50          1.90000e+01
 64.52          1.70000e+01
 64.54          2.20000e+01
 64.56          1.90000e+01
 64.58          1.80000e+01
 64.60          2.40000e+01
 64.62          1.90000e+01
 64.64          1.80000e+01
 64.66          1.50000e+01
 64.68          2.20000e+01
 64.70          2.80000e+01
 64.72          2.90000e+01
 64.74          1.90000e+01
 64.76          1.70000e+01
 64.78          1.50000e+01
 64.80          1.70000e+01
 64.82          2.40000e+01
 64.84          2.10000e+01
 64.86          1.60000e+01
 64.88          2.10000e+01
 64.90          2.60000e+01
 64.92          2.00000e+01
 64.94          2.20000e+01
 64.96          2.10000e+01
 64.98          1.20000e+01
 65.00          1.70000e+01
 65.02          2.30000e+01
 65.04          2.10000e+01
 65.06          2.10000e+01
 65.08          2.20000e+01
 65.10          2.10000e+01
 65.12          2.00000e+01
 65.14          2.20000e+01
 65.16          2.10000e+01
 65.18          1.50000e+01
 65.20          8.00000e+00
 65.22          1.70000e+01
 65.24          1.70000e+01
 65.26          2.10000e+01
 65.28          2.50000e+01
 65.30          2.40000e+01
 65.32          2.40000e+01
 65.34          2.50000e+01
 65.36          2.20000e+01
 65.38          3.00000e+01
 65.40          1.90000e+01
 65.42          1.70000e+01
 65.44          1.90000e+01
 65.46          2.80000e+01
 65.48          2.10000e+01
 65.50          1.50000e+01
 65.52          1.90000e+01
 65.54          1.90000e+01
 65.56          2.10000e+01
 65.58          1.60000e+01
 65.60          2.70000e+01
 65.62          2.40000e+01
 65.64          3.10000e+01
 65.66          1.80000e+01
 65.68          2.20000e+01
 65.70          1.90000e+01
 65.72          1.80000e+01
 65.74          1.70000e+01
 65.76          2.60000e+01
 65.78          2.10000e+01
 65.80          2.50000e+01
 65.82          2.20000e+01
 65.84          2.10000e+01
 65.86          1.80000e+01
 65.88          2.50000e+01
 65.90          2.30000e+01
 65.92          2.70000e+01
 65.94          3.10000e+01
 65.96          2.20000e+01
 65.98          2.30000e+01
 66.00          3.10000e+01
 66.02          3.00000e+01
 66.04          3.10000e+01
 66.06          2.80000e+01
 66.08          3.00000e+01
 66.10          2.40000e+01
 66.12          1.30000e+01
 66.14          2.90000e+01
 66.16          1.50000e+01
 66.18          1.70000e+01
 66.20          1.80000e+01
 66.22          2.70000e+01
 66.24          2.70000e+01
 66.26          2.30000e+01
 66.28          1.70000e+01
 66.30          2.50000e+01
 66.32          1.60000e+01
 66.34          2.00000e+01
 66.36          1.90000e+01
 66.38          2.20000e+01
 66.40          2.40000e+01
 66.42          2.80000e+01
 66.44          1.40000e+01
 66.46          1.40000e+01
 66.48          1.10000e+01
 66.50          3.20000e+01
 66.52          3.40000e+01
 66.54          2.00000e+01
 66.56          2.50000e+01
 66.58          2.60000e+01
 66.60          1.50000e+01
 66.62          1.70000e+01
 66.64          3.10000e+01
 66.66          2.30000e+01
 66.68          1.80000e+01
 66.70          3.00000e+01
 66.72          2.30000e+01
 66.74          3.30000e+01
 66.76          1.50000e+01
 66.78          1.80000e+01
 66.80          2.10000e+01
 66.82          1.60000e+01
 66.84          2.50000e+01
 66.86          2.70000e+01
 66.88          2.10000e+01
 66.90          1.80000e+01
 66.92          1.80000e+01
 66.94          1.60000e+01
 66.96          2.60000e+01
 66.98          2.40000e+01
 67.00          2.20000e+01
 67.02          2.40000e+01
 67.04          2.10000e+01
 67.06          2.20000e+01
 67.08          2.60000e+01
 67.10          1.60000e+01
 67.12          8.00000e+00
 67.14          2.20000e+01
 67.16          3.10000e+01
 67.18          1.80000e+01
 67.20          1.60000e+01
 67.22          1.70000e+01
 67.24          2.10000e+01
 67.26          1.90000e+01
 67.28          1.70000e+01
 67.30          1.70000e+01
 67.32          1.70000e+01
 67.34          1.80000e+01
 67.36          2.60000e+01
 67.38          2.10000e+01
 67.40          2.10000e+01
 67.42          1.50000e+01
 67.44          1.80000e+01
 67.46          2.50000e+01
 67.48          2.40000e+01
 67.50          2.10000e+01
 67.52          2.30000e+01
 67.54          2.10000e+01
 67.56          2.90000e+01
 67.58          2.10000e+01
 67.60          2.70000e+01
 67.62          1.90000e+01
 67.64          1.50000e+01
 67.66          3.00000e+01
 67.68          1.70000e+01
 67.70          2.00000e+01
 67.72          1.90000e+01
 67.74          1.50000e+01
 67.76          2.10000e+01
 67.78          2.50000e+01
 67.80          1.80000e+01
 67.82          3.10000e+01
 67.84          2.40000e+01
 67.86          1.80000e+01
 67.88          2.10000e+01
 67.90          1.70000e+01
 67.92          2.00000e+01
 67.94          2.80000e+01
 67.96          1.60000e+01
 67.98          1.70000e+01
 68.00          3.00000e+01
 68.02          2.80000e+01
 68.04          2.90000e+01
 68.06          1.90000e+01
 68.08          2.70000e+01
 68.10          2.10000e+01
 68.12          2.00000e+01
 68.14          2.60000e+01
 68.16          2.90000e+01
 68.18          2.60000e+01
 68.20          1.30000e+01
 68.22          2.00000e+01
 68.24          1.70000e+01
 68.26          2.90000e+01
 68.28          2.10000e+01
 68.30          2.30000e+01
 68.32          1.90000e+01
 68.34          1.70000e+01
 68.36          1.80000e+01
 68.38          1.20000e+01
 68.40          2.00000e+01
 68.42          2.20000e+01
 68.44          1.70000e+01
 68.46          1.60000e+01
 68.48          1.60000e+01
 68.50          1.60000e+01
 68.52          1.60000e+01
 68.54          1.50000e+01
 68.56          2.40000e+01
 68.58          1.90000e+01
 68.60          2.70000e+01
 68.62          1.60000e+01
 68.64          2.10000e+01
 68.66          3.00000e+01
 68.68          2.10000e+01
 68.70          1.30000e+01
 68.72          1.60000e+01
 68.74          1.60000e+01
 68.76          1.70000e+01
 68.78          2.00000e+01
 68.80          1.70000e+01
 68.82          1.80000e+01
 68.84          1.10000e+01
 68.86          1.90000e+01
 68.88          1.70000e+01
 68.90          2.10000e+01
 68.92          1.60000e+01
 68.94          1.90000e+01
 68.96          1.90000e+01
 68.98          1.70000e+01
 69.00          1.40000e+01
 69.02          2.60000e+01
 69.04          2.60000e+01
 69.06          2.30000e+01
 69.08          3.20000e+01
 69.10          2.20000e+01
 69.12          2.00000e+01
 69.14          2.30000e+01
 69.16          3.70000e+01
 69.18          2.40000e+01
 69.20          1.50000e+01
 69.22          2.20000e+01
 69.24          3.50000e+01
 69.26          2.90000e+01
 69.28          2.30000e+01
 69.30          2.60000e+01
 69.32          2.40000e+01
 69.34          2.10000e+01
 69.36          1.90000e+01
 69.38          1.60000e+01
 69.40          1.60000e+01
 69.42          2.30000e+01
 69.44          2.50000e+01
 69.46          1.10000e+01
 69.48          1.60000e+01
 69.50          2.00000e+01
 69.52          1.60000e+01
 69.54          1.70000e+01
 69.56          1.50000e+01
 69.58          2.10000e+01
 69.60          1.30000e+01
 69.62          1.50000e+01
 69.64          2.70000e+01
 69.66          2.40000e+01
 69.68          2.00000e+01
 69.70          1.90000e+01
 69.72          1.80000e+01
 69.74          2.50000e+01
 69.76          1.90000e+01
 69.78          1.70000e+01
 69.80          2.10000e+01
 69.82          2.10000e+01
 69.84          1.80000e+01
 69.86          3.10000e+01
 69.88          1.80000e+01
 69.90          1.40000e+01
 69.92          2.80000e+01
 69.94          1.90000e+01
 69.96          1.70000e+01
 69.98          2.00000e+01
 70.00          1.40000e+01
 70.02          1.90000e+01
 70.04          1.50000e+01
 70.06          9.00000e+00
 70.08          2.00000e+01
 70.10          1.60000e+01
 70.12          2.50000e+01
 70.14          2.20000e+01
 70.16          1.80000e+01
 70.18          1.80000e+01
 70.20          1.90000e+01
 70.22          1.80000e+01
 70.24          1.80000e+01
 70.26          1.70000e+01
 70.28          2.10000e+01
 70.30          2.00000e+01
 70.32          3.20000e+01
 70.34          1.80000e+01
 70.36          1.60000e+01
 70.38          8.00000e+00
 70.40          1.00000e+01
 70.42          2.10000e+01
 70.44          2.50000e+01
 70.46          2.00000e+01
 70.48          1.20000e+01
 70.50          2.30000e+01
 70.52          2.50000e+01
 70.54          2.90000e+01
 70.56          1.80000e+01
 70.58          1.80000e+01
 70.60          2.40000e+01
 70.62          2.20000e+01
 70.64          2.80000e+01
 70.66          2.50000e+01
 70.68          2.40000e+01
 70.70          1.70000e+01
 70.72          2.90000e+01
 70.74          2.90000e+01
 70.76          2.30000e+01
 70.78          2.30000e+01
 70.80          2.30000e+01
 70.82          1.50000e+01
 70.84          1.90000e+01
 70.86          1.90000e+01
 70.88          1.60000e+01
 70.90          1.80000e+01
 70.92          1.90000e+01
 70.94          2.40000e+01
 70.96          1.90000e+01
 70.98          1.80000e+01
 71.00          1.90000e+01
 71.02          1.50000e+01
 71.04          2.10000e+01
 71.06          2.20000e+01
 71.08          2.20000e+01
 71.10          2.20000e+01
 71.12          2.00000e+01
 71.14          2.10000e+01
 71.16          1.40000e+01
 71.18          1.60000e+01
 71.20          1.20000e+01
 71.22          1.30000e+01
 71.24          2.60000e+01
 71.26          3.30000e+01
 71.28          2.40000e+01
 71.30          2.80000e+01
 71.32          2.80000e+01
 71.34          2.80000e+01
 71.36          1.80000e+01
 71.38          1.70000e+01
 71.40          1.60000e+01
 71.42          2.40000e+01
 71.44          2.20000e+01
 71.46          1.90000e+01
 71.48          1.20000e+01
 71.50          1.60000e+01
 71.52          1.60000e+01
 71.54          1.90000e+01
 71.56          2.00000e+01
 71.58          2.40000e+01
 71.60          1.70000e+01
 71.62          1.30000e+01
 71.64          2.40000e+01
 71.66          1.30000e+01
 71.68          2.10000e+01
 71.70          2.40000e+01
 71.72          1.30000e+01
 71.74          1.10000e+01
 71.76          2.40000e+01
 71.78          2.20000e+01
 71.80          2.30000e+01
 71.82          2.20000e+01
 71.84          2.00000e+01
 71.86          1.10000e+01
 71.88          1.70000e+01
 71.90          2.30000e+01
 71.92          3.10000e+01
 71.94          3.00000e+01
 71.96          2.20000e+01
 71.98          1.90000e+01
 72.00          2.40000e+01
 72.02          3.10000e+01
 72.04          2.10000e+01
 72.06          2.40000e+01
 72.08          2.10000e+01
 72.10          2.00000e+01
 72.12          2.00000e+01
 72.14          2.10000e+01
 72.16          2.20000e+01
 72.18          1.80000e+01
 72.20          2.00000e+01
 72.22          2.00000e+01
 72.24          1.60000e+01
 72.26          1.90000e+01
 72.28          1.30000e+01
 72.30          1.70000e+01
 72.32          2.10000e+01
 72.34          1.80000e+01
 72.36          2.40000e+01
 72.38          1.70000e+01
 72.40          2.90000e+01
 72.42          2.30000e+01
 72.44          2.40000e+01
 72.46          1.80000e+01
 72.48          1.60000e+01
 72.50          1.20000e+01
 72.52          1.70000e+01
 72.54          1.80000e+01
 72.56          1.80000e+01
 72.58          1.80000e+01
 72.60          1.60000e+01
 72.62          2.00000e+01
 72.64          2.70000e+01
 72.66          2.90000e+01
 72.68          2.20000e+01
 72.70          2.50000e+01
 72.72          2.50000e+01
 72.74          2.10000e+01
 72.76          2.20000e+01
 72.78          1.20000e+01
 72.80          1.30000e+01
 72.82          1.30000e+01
 72.84          1.40000e+01
 72.86          1.40000e+01
 72.88          2.00000e+01
 72.90          2.00000e+01
 72.92          2.00000e+01
 72.94          2.20000e+01
 72.96          2.10000e+01
 72.98          2.00000e+01
 73.00          2.60000e+01
 73.02          2.20000e+01
 73.04          2.20000e+01
 73.06          1.80000e+01
 73.08          2.30000e+01
 73.10          3.30000e+01
 73.12          1.70000e+01
 73.14          2.20000e+01
 73.16          1.80000e+01
 73.18          2.60000e+01
 73.20          2.90000e+01
 73.22          1.50000e+01
 73.24          1.50000e+01
 73.26          2.00000e+01
 73.28          2.60000e+01
 73.30          2.80000e+01
 73.32          2.10000e+01
 73.34          1.30000e+01
 73.36          1.70000e+01
 73.38          2.30000e+01
 73.40          2.60000e+01
 73.42          3.60000e+01
 73.44          2.70000e+01
 73.46          2.00000e+01
 73.48          1.70000e+01
 73.50          2.20000e+01
 73.52          2.00000e+01
 73.54          1.90000e+01
 73.56          1.50000e+01
 73.58          1.50000e+01
 73.60          9.00000e+00
 73.62          1.50000e+01
 73.64          2.80000e+01
 73.66          1.70000e+01
 73.68          1.90000e+01
 73.70          1.50000e+01
 73.72          2.30000e+01
 73.74          2.10000e+01
 73.76          1.30000e+01
 73.78          2.40000e+01
 73.80          1.60000e+01
 73.82          1.60000e+01
 73.84          1.30000e+01
 73.86          2.20000e+01
 73.88          2.40000e+01
 73.90          2.60000e+01
 73.92          2.60000e+01
 73.94          1.40000e+01
 73.96          1.50000e+01
 73.98          1.60000e+01
 74.00          1.90000e+01
 74.02          1.10000e+01
 74.04          1.80000e+01
 74.06          1.20000e+01
 74.08          1.30000e+01
 74.10          1.00000e+01
 74.12          2.00000e+01
 74.14          1.50000e+01
 74.16          1.20000e+01
 74.18          1.20000e+01
 74.20          1.60000e+01
 74.22          2.20000e+01
 74.24          2.00000e+01
 74.26          1.90000e+01
 74.28          1.90000e+01
 74.30          1.40000e+01
 74.32          1.10000e+01
 74.34          1.80000e+01
 74.36          1.80000e+01
 74.38          1.50000e+01
 74.40          2.00000e+01
 74.42          1.50000e+01
 74.44          1.30000e+01
 74.46          1.60000e+01
 74.48          1.50000e+01
 74.50          1.90000e+01
 74.52          2.80000e+01
 74.54          2.70000e+01
 74.56          2.10000e+01
 74.58          1.80000e+01
 74.60          1.20000e+01
 74.62          2.20000e+01
 74.64          3.00000e+01
 74.66          2.50000e+01
 74.68          2.00000e+01
 74.70          2.30000e+01
 74.72          1.90000e+01
 74.74          1.60000e+01
 74.76          2.20000e+01
 74.78          1.80000e+01
 74.80          3.00000e+01
 74.82          1.80000e+01
 74.84          1.40000e+01
 74.86          1.80000e+01
 74.88          2.30000e+01
 74.90          1.00000e+01
 74.92          1.50000e+01
 74.94          1.70000e+01
 74.96          1.80000e+01
 74.98          1.60000e+01
