#-----------------------------------------------
# data_format   :  2.1
# original_file :  6062_Au_D2_v1J2_offRes.dat
# date          :  Mon Dec  7 03:09:08 2015
# molecule      :  D2
# temperature   :  1063
# v             :  1
# J             :  2
# data_col      :  2
# data_row      :  47
#-----------------------------------------------

#-----------------------------------------------
# Original Header
#-----------------------------------------------
# Counter Settings:
# Falling Edge
# Disc Threshold [V]	-0.301514
# Dwell time [s]	2.000000E-8
# Number of channels	3750
# Number of Scans	25000
# 
# D2
# v 1
# J 2
# 29.5V 3.25A
# Au 788C
# Knnew  ?C
# Kn  e-2mbar (base 1.5e-2)
# x=35mm y=35.5mm z=512mm
# D2/RGA 8.0e-11 torr (base 1.8e-11)
# 500: 8.5e-9 mbar
# 100: 1.9e-9 mbar
# FFR heater 4.0A 1.25V
# extra heater 3.0A 0.6V
# Extractor: -30V
# Lens: -1200V
# MCP: -2100V
# Laser Position	207.519970
# 
# Laser Power [mJ]	1.032695
# Time [µs]	Counts

#-----------------------------------------------
# Begin Data
#-----------------------------------------------
  0.00          4.10650e+04
  0.02          1.02790e+04
  0.04          1.59000e+02
  0.06          1.08000e+02
  0.08          9.60000e+01
  0.10          3.80000e+01
  0.12          1.70000e+01
  0.14          9.00000e+00
  0.16          1.20000e+01
  0.18          1.70000e+01
  0.20          2.30000e+01
  0.22          4.00000e+01
  0.24          2.90000e+01
  0.26          4.50000e+01
  0.28          7.10000e+01
  0.30          7.70000e+01
  0.32          6.40000e+01
  0.34          7.40000e+01
  0.36          5.20000e+01
  0.38          7.00000e+01
  0.40          6.50000e+01
  0.42          7.70000e+01
  0.44          6.70000e+01
  0.46          6.70000e+01
  0.48          5.30000e+01
  0.50          6.60000e+01
  0.52          5.70000e+01
  0.54          5.60000e+01
  0.56          4.60000e+01
  0.58          3.10000e+01
  0.60          4.50000e+01
  0.62          7.50000e+01
  0.64          9.40000e+01
  0.66          1.01000e+02
  0.68          9.50000e+01
  0.70          9.40000e+01
  0.72          9.80000e+01
  0.74          9.70000e+01
  0.76          1.15000e+02
  0.78          1.47000e+02
  0.80          1.69000e+02
  0.82          1.95000e+02
  0.84          2.44000e+02
  0.86          2.53000e+02
  0.88          2.44000e+02
  0.90          2.48000e+02
  0.92          2.94000e+02
  0.94          3.17000e+02
  0.96          3.76000e+02
  0.98          4.11000e+02
  1.00          4.67000e+02
  1.02          5.87000e+02
  1.04          7.29000e+02
  1.06          7.89000e+02
  1.08          8.48000e+02
  1.10          6.93000e+02
  1.12          5.54000e+02
  1.14          3.59000e+02
  1.16          2.80000e+02
  1.18          2.44000e+02
  1.20          2.11000e+02
  1.22          1.84000e+02
  1.24          1.64000e+02
  1.26          1.61000e+02
  1.28          1.49000e+02
  1.30          1.75000e+02
  1.32          1.62000e+02
  1.34          1.52000e+02
  1.36          1.42000e+02
  1.38          1.38000e+02
  1.40          1.43000e+02
  1.42          1.33000e+02
  1.44          1.16000e+02
  1.46          9.80000e+01
  1.48          1.24000e+02
  1.50          1.05000e+02
  1.52          9.50000e+01
  1.54          8.50000e+01
  1.56          6.00000e+01
  1.58          5.80000e+01
  1.60          4.10000e+01
  1.62          4.60000e+01
  1.64          6.60000e+01
  1.66          4.20000e+01
  1.68          3.20000e+01
  1.70          3.80000e+01
  1.72          4.20000e+01
  1.74          3.50000e+01
  1.76          3.10000e+01
  1.78          2.70000e+01
  1.80          2.70000e+01
  1.82          4.30000e+01
  1.84          4.20000e+01
  1.86          4.00000e+01
  1.88          3.70000e+01
  1.90          3.20000e+01
  1.92          3.70000e+01
  1.94          3.80000e+01
  1.96          4.10000e+01
  1.98          4.00000e+01
  2.00          3.90000e+01
  2.02          3.20000e+01
  2.04          3.20000e+01
  2.06          1.90000e+01
  2.08          3.10000e+01
  2.10          4.30000e+01
  2.12          3.70000e+01
  2.14          3.20000e+01
  2.16          3.20000e+01
  2.18          3.70000e+01
  2.20          2.90000e+01
  2.22          2.90000e+01
  2.24          4.50000e+01
  2.26          2.30000e+01
  2.28          3.80000e+01
  2.30          4.70000e+01
  2.32          4.00000e+01
  2.34          4.90000e+01
  2.36          3.30000e+01
  2.38          2.90000e+01
  2.40          4.00000e+01
  2.42          2.80000e+01
  2.44          2.70000e+01
  2.46          3.20000e+01
  2.48          3.30000e+01
  2.50          2.00000e+01
  2.52          1.60000e+01
  2.54          2.10000e+01
  2.56          2.40000e+01
  2.58          2.10000e+01
  2.60          2.10000e+01
  2.62          2.50000e+01
  2.64          3.30000e+01
  2.66          2.60000e+01
  2.68          1.90000e+01
  2.70          1.70000e+01
  2.72          2.20000e+01
  2.74          3.30000e+01
  2.76          1.50000e+01
  2.78          2.10000e+01
  2.80          2.30000e+01
  2.82          2.30000e+01
  2.84          2.90000e+01
  2.86          3.10000e+01
  2.88          2.50000e+01
  2.90          1.80000e+01
  2.92          1.70000e+01
  2.94          1.60000e+01
  2.96          2.50000e+01
  2.98          1.80000e+01
  3.00          2.30000e+01
  3.02          1.40000e+01
  3.04          1.40000e+01
  3.06          1.30000e+01
  3.08          1.20000e+01
  3.10          2.20000e+01
  3.12          1.60000e+01
  3.14          1.60000e+01
  3.16          1.10000e+01
  3.18          1.60000e+01
  3.20          2.60000e+01
  3.22          1.80000e+01
  3.24          2.10000e+01
  3.26          2.00000e+01
  3.28          1.50000e+01
  3.30          1.80000e+01
  3.32          1.70000e+01
  3.34          2.70000e+01
  3.36          2.10000e+01
  3.38          2.90000e+01
  3.40          2.60000e+01
  3.42          1.90000e+01
  3.44          1.70000e+01
  3.46          2.30000e+01
  3.48          2.30000e+01
  3.50          2.50000e+01
  3.52          2.30000e+01
  3.54          2.50000e+01
  3.56          2.50000e+01
  3.58          1.50000e+01
  3.60          1.60000e+01
  3.62          2.50000e+01
  3.64          2.90000e+01
  3.66          2.50000e+01
  3.68          2.20000e+01
  3.70          1.90000e+01
  3.72          1.70000e+01
  3.74          2.70000e+01
  3.76          3.00000e+01
  3.78          2.90000e+01
  3.80          2.00000e+01
  3.82          2.70000e+01
  3.84          2.60000e+01
  3.86          1.70000e+01
  3.88          1.50000e+01
  3.90          1.80000e+01
  3.92          2.50000e+01
  3.94          3.70000e+01
  3.96          3.10000e+01
  3.98          3.30000e+01
  4.00          2.30000e+01
  4.02          2.00000e+01
  4.04          2.40000e+01
  4.06          2.70000e+01
  4.08          3.10000e+01
  4.10          2.90000e+01
  4.12          3.70000e+01
  4.14          3.30000e+01
  4.16          2.00000e+01
  4.18          2.80000e+01
  4.20          3.50000e+01
  4.22          3.00000e+01
  4.24          1.90000e+01
  4.26          2.70000e+01
  4.28          3.80000e+01
  4.30          3.20000e+01
  4.32          3.30000e+01
  4.34          2.20000e+01
  4.36          2.00000e+01
  4.38          2.10000e+01
  4.40          2.80000e+01
  4.42          3.40000e+01
  4.44          2.90000e+01
  4.46          2.30000e+01
  4.48          2.40000e+01
  4.50          2.80000e+01
  4.52          2.40000e+01
  4.54          2.30000e+01
  4.56          2.90000e+01
  4.58          2.30000e+01
  4.60          3.20000e+01
  4.62          3.40000e+01
  4.64          2.10000e+01
  4.66          2.30000e+01
  4.68          2.00000e+01
  4.70          3.20000e+01
  4.72          1.50000e+01
  4.74          2.20000e+01
  4.76          3.50000e+01
  4.78          3.70000e+01
  4.80          4.00000e+01
  4.82          3.20000e+01
  4.84          2.30000e+01
  4.86          2.40000e+01
  4.88          2.80000e+01
  4.90          2.90000e+01
  4.92          2.20000e+01
  4.94          2.40000e+01
  4.96          2.60000e+01
  4.98          3.60000e+01
  5.00          3.70000e+01
  5.02          3.20000e+01
  5.04          4.30000e+01
  5.06          3.40000e+01
  5.08          4.00000e+01
  5.10          3.00000e+01
  5.12          3.30000e+01
  5.14          4.60000e+01
  5.16          3.70000e+01
  5.18          2.50000e+01
  5.20          2.80000e+01
  5.22          3.10000e+01
  5.24          3.90000e+01
  5.26          3.00000e+01
  5.28          3.10000e+01
  5.30          2.40000e+01
  5.32          2.70000e+01
  5.34          5.10000e+01
  5.36          5.90000e+01
  5.38          4.40000e+01
  5.40          4.00000e+01
  5.42          4.50000e+01
  5.44          4.30000e+01
  5.46          4.10000e+01
  5.48          5.40000e+01
  5.50          4.30000e+01
  5.52          4.30000e+01
  5.54          4.80000e+01
  5.56          5.70000e+01
  5.58          4.90000e+01
  5.60          4.60000e+01
  5.62          3.50000e+01
  5.64          4.50000e+01
  5.66          3.80000e+01
  5.68          3.70000e+01
  5.70          3.60000e+01
  5.72          3.90000e+01
  5.74          3.90000e+01
  5.76          4.60000e+01
  5.78          3.90000e+01
  5.80          3.50000e+01
  5.82          3.60000e+01
  5.84          2.70000e+01
  5.86          3.70000e+01
  5.88          4.70000e+01
  5.90          4.20000e+01
  5.92          3.20000e+01
  5.94          3.80000e+01
  5.96          4.40000e+01
  5.98          3.90000e+01
  6.00          3.70000e+01
  6.02          3.50000e+01
  6.04          2.50000e+01
  6.06          2.70000e+01
  6.08          4.10000e+01
  6.10          4.40000e+01
  6.12          4.00000e+01
  6.14          2.90000e+01
  6.16          3.50000e+01
  6.18          4.60000e+01
  6.20          3.90000e+01
  6.22          3.80000e+01
  6.24          4.00000e+01
  6.26          4.10000e+01
  6.28          4.80000e+01
  6.30          2.50000e+01
  6.32          2.50000e+01
  6.34          2.80000e+01
  6.36          2.80000e+01
  6.38          3.20000e+01
  6.40          3.20000e+01
  6.42          1.90000e+01
  6.44          2.80000e+01
  6.46          3.40000e+01
  6.48          2.90000e+01
  6.50          3.20000e+01
  6.52          4.70000e+01
  6.54          5.00000e+01
  6.56          5.20000e+01
  6.58          4.10000e+01
  6.60          5.90000e+01
  6.62          6.80000e+01
  6.64          5.50000e+01
  6.66          4.70000e+01
  6.68          4.20000e+01
  6.70          5.60000e+01
  6.72          5.60000e+01
  6.74          5.50000e+01
  6.76          4.50000e+01
  6.78          4.50000e+01
  6.80          5.50000e+01
  6.82          5.80000e+01
  6.84          5.90000e+01
  6.86          4.00000e+01
  6.88          4.30000e+01
  6.90          6.50000e+01
  6.92          6.60000e+01
  6.94          4.60000e+01
  6.96          4.20000e+01
  6.98          4.70000e+01
  7.00          4.00000e+01
  7.02          4.00000e+01
  7.04          5.00000e+01
  7.06          5.20000e+01
  7.08          4.50000e+01
  7.10          4.60000e+01
  7.12          3.20000e+01
  7.14          3.90000e+01
  7.16          4.20000e+01
  7.18          3.70000e+01
  7.20          4.50000e+01
  7.22          4.30000e+01
  7.24          4.80000e+01
  7.26          4.40000e+01
  7.28          4.40000e+01
  7.30          5.80000e+01
  7.32          4.30000e+01
  7.34          3.70000e+01
  7.36          3.60000e+01
  7.38          4.60000e+01
  7.40          5.80000e+01
  7.42          4.40000e+01
  7.44          4.20000e+01
  7.46          3.80000e+01
  7.48          4.50000e+01
  7.50          5.20000e+01
  7.52          4.20000e+01
  7.54          5.00000e+01
  7.56          4.00000e+01
  7.58          4.10000e+01
  7.60          4.70000e+01
  7.62          4.80000e+01
  7.64          4.60000e+01
  7.66          2.80000e+01
  7.68          4.00000e+01
  7.70          5.30000e+01
  7.72          4.70000e+01
  7.74          3.70000e+01
  7.76          4.40000e+01
  7.78          4.80000e+01
  7.80          4.70000e+01
  7.82          5.50000e+01
  7.84          5.60000e+01
  7.86          4.90000e+01
  7.88          4.70000e+01
  7.90          4.60000e+01
  7.92          5.40000e+01
  7.94          4.50000e+01
  7.96          4.80000e+01
  7.98          5.10000e+01
  8.00          5.20000e+01
  8.02          5.00000e+01
  8.04          4.30000e+01
  8.06          5.10000e+01
  8.08          5.00000e+01
  8.10          3.50000e+01
  8.12          3.20000e+01
  8.14          3.30000e+01
  8.16          4.40000e+01
  8.18          6.20000e+01
  8.20          5.20000e+01
  8.22          5.30000e+01
  8.24          5.10000e+01
  8.26          4.90000e+01
  8.28          5.10000e+01
  8.30          5.50000e+01
  8.32          4.90000e+01
  8.34          5.40000e+01
  8.36          4.90000e+01
  8.38          5.80000e+01
  8.40          5.00000e+01
  8.42          4.40000e+01
  8.44          3.70000e+01
  8.46          3.80000e+01
  8.48          4.30000e+01
  8.50          2.90000e+01
  8.52          3.30000e+01
  8.54          3.70000e+01
  8.56          5.00000e+01
  8.58          4.50000e+01
  8.60          4.10000e+01
  8.62          2.80000e+01
  8.64          3.60000e+01
  8.66          4.00000e+01
  8.68          5.60000e+01
  8.70          5.00000e+01
  8.72          4.40000e+01
  8.74          3.40000e+01
  8.76          4.40000e+01
  8.78          3.30000e+01
  8.80          3.40000e+01
  8.82          3.60000e+01
  8.84          4.80000e+01
  8.86          4.00000e+01
  8.88          3.20000e+01
  8.90          3.80000e+01
  8.92          4.30000e+01
  8.94          4.10000e+01
  8.96          4.00000e+01
  8.98          4.00000e+01
  9.00          2.50000e+01
  9.02          1.80000e+01
  9.04          2.00000e+01
  9.06          2.50000e+01
  9.08          2.80000e+01
  9.10          3.20000e+01
  9.12          4.00000e+01
  9.14          3.00000e+01
  9.16          3.30000e+01
  9.18          2.80000e+01
  9.20          3.10000e+01
  9.22          3.60000e+01
  9.24          3.10000e+01
  9.26          3.10000e+01
  9.28          2.50000e+01
  9.30          4.50000e+01
  9.32          4.10000e+01
  9.34          4.10000e+01
  9.36          2.40000e+01
  9.38          2.50000e+01
  9.40          2.50000e+01
  9.42          2.10000e+01
  9.44          3.70000e+01
  9.46          3.10000e+01
  9.48          3.10000e+01
  9.50          3.20000e+01
  9.52          2.60000e+01
  9.54          3.10000e+01
  9.56          4.20000e+01
  9.58          2.00000e+01
  9.60          1.40000e+01
  9.62          2.70000e+01
  9.64          3.00000e+01
  9.66          3.20000e+01
  9.68          3.70000e+01
  9.70          3.00000e+01
  9.72          2.10000e+01
  9.74          2.90000e+01
  9.76          3.80000e+01
  9.78          3.00000e+01
  9.80          2.60000e+01
  9.82          2.20000e+01
  9.84          3.20000e+01
  9.86          2.70000e+01
  9.88          1.80000e+01
  9.90          2.70000e+01
  9.92          2.30000e+01
  9.94          3.30000e+01
  9.96          3.50000e+01
  9.98          3.90000e+01
 10.00          3.40000e+01
 10.02          3.30000e+01
 10.04          2.70000e+01
 10.06          2.20000e+01
 10.08          2.60000e+01
 10.10          1.80000e+01
 10.12          2.70000e+01
 10.14          2.60000e+01
 10.16          3.00000e+01
 10.18          2.90000e+01
 10.20          2.20000e+01
 10.22          3.40000e+01
 10.24          3.00000e+01
 10.26          2.50000e+01
 10.28          2.90000e+01
 10.30          2.70000e+01
 10.32          3.30000e+01
 10.34          3.70000e+01
 10.36          3.30000e+01
 10.38          2.70000e+01
 10.40          1.80000e+01
 10.42          2.50000e+01
 10.44          2.80000e+01
 10.46          2.60000e+01
 10.48          2.60000e+01
 10.50          1.90000e+01
 10.52          2.20000e+01
 10.54          2.00000e+01
 10.56          2.20000e+01
 10.58          1.60000e+01
 10.60          2.90000e+01
 10.62          3.60000e+01
 10.64          3.10000e+01
 10.66          2.10000e+01
 10.68          3.00000e+01
 10.70          2.70000e+01
 10.72          1.40000e+01
 10.74          1.60000e+01
 10.76          2.30000e+01
 10.78          2.30000e+01
 10.80          2.50000e+01
 10.82          2.90000e+01
 10.84          1.40000e+01
 10.86          2.00000e+01
 10.88          2.40000e+01
 10.90          2.00000e+01
 10.92          1.60000e+01
 10.94          2.50000e+01
 10.96          3.00000e+01
 10.98          2.00000e+01
 11.00          2.30000e+01
 11.02          2.60000e+01
 11.04          2.30000e+01
 11.06          3.10000e+01
 11.08          2.40000e+01
 11.10          2.90000e+01
 11.12          3.20000e+01
 11.14          3.20000e+01
 11.16          2.60000e+01
 11.18          2.20000e+01
 11.20          1.70000e+01
 11.22          1.30000e+01
 11.24          2.30000e+01
 11.26          2.90000e+01
 11.28          2.00000e+01
 11.30          1.60000e+01
 11.32          2.80000e+01
 11.34          2.60000e+01
 11.36          2.90000e+01
 11.38          1.50000e+01
 11.40          1.40000e+01
 11.42          2.70000e+01
 11.44          3.10000e+01
 11.46          3.00000e+01
 11.48          2.50000e+01
 11.50          2.70000e+01
 11.52          2.30000e+01
 11.54          1.20000e+01
 11.56          1.80000e+01
 11.58          2.10000e+01
 11.60          2.60000e+01
 11.62          2.60000e+01
 11.64          3.00000e+01
 11.66          1.90000e+01
 11.68          1.70000e+01
 11.70          1.30000e+01
 11.72          2.10000e+01
 11.74          2.20000e+01
 11.76          2.80000e+01
 11.78          1.70000e+01
 11.80          1.40000e+01
 11.82          1.50000e+01
 11.84          2.50000e+01
 11.86          2.10000e+01
 11.88          2.00000e+01
 11.90          3.40000e+01
 11.92          2.70000e+01
 11.94          2.10000e+01
 11.96          4.00000e+01
 11.98          2.50000e+01
 12.00          3.60000e+01
 12.02          3.40000e+01
 12.04          2.10000e+01
 12.06          2.30000e+01
 12.08          3.00000e+01
 12.10          3.10000e+01
 12.12          2.90000e+01
 12.14          2.40000e+01
 12.16          2.00000e+01
 12.18          1.50000e+01
 12.20          2.20000e+01
 12.22          2.80000e+01
 12.24          2.80000e+01
 12.26          2.10000e+01
 12.28          3.20000e+01
 12.30          2.20000e+01
 12.32          2.60000e+01
 12.34          2.10000e+01
 12.36          2.40000e+01
 12.38          2.40000e+01
 12.40          2.20000e+01
 12.42          2.30000e+01
 12.44          2.70000e+01
 12.46          2.10000e+01
 12.48          1.60000e+01
 12.50          3.20000e+01
 12.52          2.60000e+01
 12.54          2.10000e+01
 12.56          2.40000e+01
 12.58          2.00000e+01
 12.60          1.70000e+01
 12.62          2.20000e+01
 12.64          2.20000e+01
 12.66          1.70000e+01
 12.68          2.20000e+01
 12.70          1.10000e+01
 12.72          1.10000e+01
 12.74          2.70000e+01
 12.76          3.30000e+01
 12.78          3.20000e+01
 12.80          2.80000e+01
 12.82          3.50000e+01
 12.84          1.90000e+01
 12.86          2.30000e+01
 12.88          3.20000e+01
 12.90          2.80000e+01
 12.92          3.10000e+01
 12.94          3.00000e+01
 12.96          2.90000e+01
 12.98          3.30000e+01
 13.00          2.50000e+01
 13.02          2.00000e+01
 13.04          2.30000e+01
 13.06          2.50000e+01
 13.08          2.40000e+01
 13.10          2.80000e+01
 13.12          3.30000e+01
 13.14          2.50000e+01
 13.16          2.40000e+01
 13.18          2.40000e+01
 13.20          2.50000e+01
 13.22          2.50000e+01
 13.24          3.20000e+01
 13.26          2.90000e+01
 13.28          3.30000e+01
 13.30          1.60000e+01
 13.32          2.70000e+01
 13.34          4.00000e+01
 13.36          3.00000e+01
 13.38          2.90000e+01
 13.40          3.00000e+01
 13.42          2.10000e+01
 13.44          2.70000e+01
 13.46          2.70000e+01
 13.48          4.80000e+01
 13.50          3.50000e+01
 13.52          2.60000e+01
 13.54          2.70000e+01
 13.56          3.30000e+01
 13.58          2.70000e+01
 13.60          2.60000e+01
 13.62          3.90000e+01
 13.64          2.60000e+01
 13.66          2.30000e+01
 13.68          2.40000e+01
 13.70          2.20000e+01
 13.72          2.60000e+01
 13.74          1.80000e+01
 13.76          2.70000e+01
 13.78          2.70000e+01
 13.80          1.90000e+01
 13.82          2.10000e+01
 13.84          2.80000e+01
 13.86          4.70000e+01
 13.88          3.40000e+01
 13.90          3.40000e+01
 13.92          3.90000e+01
 13.94          3.10000e+01
 13.96          3.70000e+01
 13.98          3.00000e+01
 14.00          3.10000e+01
 14.02          2.30000e+01
 14.04          2.50000e+01
 14.06          1.80000e+01
 14.08          1.60000e+01
 14.10          2.70000e+01
 14.12          3.10000e+01
 14.14          3.60000e+01
 14.16          3.90000e+01
 14.18          3.30000e+01
 14.20          2.30000e+01
 14.22          2.60000e+01
 14.24          2.90000e+01
 14.26          2.30000e+01
 14.28          3.10000e+01
 14.30          2.90000e+01
 14.32          2.30000e+01
 14.34          2.60000e+01
 14.36          3.00000e+01
 14.38          2.10000e+01
 14.40          1.30000e+01
 14.42          1.90000e+01
 14.44          2.50000e+01
 14.46          2.30000e+01
 14.48          3.40000e+01
 14.50          2.80000e+01
 14.52          3.00000e+01
 14.54          3.00000e+01
 14.56          2.80000e+01
 14.58          3.00000e+01
 14.60          2.60000e+01
 14.62          2.80000e+01
 14.64          3.60000e+01
 14.66          2.60000e+01
 14.68          3.30000e+01
 14.70          3.20000e+01
 14.72          3.90000e+01
 14.74          3.20000e+01
 14.76          2.40000e+01
 14.78          3.00000e+01
 14.80          3.10000e+01
 14.82          3.00000e+01
 14.84          3.70000e+01
 14.86          2.80000e+01
 14.88          3.30000e+01
 14.90          2.70000e+01
 14.92          2.60000e+01
 14.94          2.40000e+01
 14.96          2.80000e+01
 14.98          3.40000e+01
 15.00          3.80000e+01
 15.02          2.70000e+01
 15.04          2.40000e+01
 15.06          3.80000e+01
 15.08          3.90000e+01
 15.10          2.90000e+01
 15.12          2.00000e+01
 15.14          1.60000e+01
 15.16          3.20000e+01
 15.18          2.60000e+01
 15.20          2.30000e+01
 15.22          3.10000e+01
 15.24          2.40000e+01
 15.26          2.60000e+01
 15.28          2.50000e+01
 15.30          2.90000e+01
 15.32          3.30000e+01
 15.34          2.60000e+01
 15.36          2.80000e+01
 15.38          3.20000e+01
 15.40          3.00000e+01
 15.42          3.10000e+01
 15.44          1.90000e+01
 15.46          1.60000e+01
 15.48          2.40000e+01
 15.50          3.00000e+01
 15.52          3.00000e+01
 15.54          2.40000e+01
 15.56          3.30000e+01
 15.58          2.50000e+01
 15.60          2.60000e+01
 15.62          2.50000e+01
 15.64          2.70000e+01
 15.66          1.80000e+01
 15.68          1.90000e+01
 15.70          1.80000e+01
 15.72          1.90000e+01
 15.74          2.10000e+01
 15.76          2.80000e+01
 15.78          2.80000e+01
 15.80          1.70000e+01
 15.82          1.80000e+01
 15.84          2.00000e+01
 15.86          1.90000e+01
 15.88          2.70000e+01
 15.90          2.90000e+01
 15.92          3.20000e+01
 15.94          2.10000e+01
 15.96          3.30000e+01
 15.98          2.50000e+01
 16.00          2.70000e+01
 16.02          2.90000e+01
 16.04          3.10000e+01
 16.06          2.80000e+01
 16.08          3.20000e+01
 16.10          2.40000e+01
 16.12          2.30000e+01
 16.14          1.60000e+01
 16.16          3.30000e+01
 16.18          3.50000e+01
 16.20          2.00000e+01
 16.22          1.60000e+01
 16.24          1.80000e+01
 16.26          3.00000e+01
 16.28          2.30000e+01
 16.30          2.90000e+01
 16.32          2.80000e+01
 16.34          3.30000e+01
 16.36          3.00000e+01
 16.38          3.30000e+01
 16.40          2.60000e+01
 16.42          3.10000e+01
 16.44          3.70000e+01
 16.46          2.80000e+01
 16.48          2.10000e+01
 16.50          2.70000e+01
 16.52          1.90000e+01
 16.54          1.70000e+01
 16.56          2.40000e+01
 16.58          1.70000e+01
 16.60          1.30000e+01
 16.62          3.20000e+01
 16.64          2.10000e+01
 16.66          2.10000e+01
 16.68          3.40000e+01
 16.70          2.80000e+01
 16.72          2.40000e+01
 16.74          2.50000e+01
 16.76          2.90000e+01
 16.78          3.10000e+01
 16.80          3.50000e+01
 16.82          2.60000e+01
 16.84          2.30000e+01
 16.86          2.00000e+01
 16.88          2.50000e+01
 16.90          3.20000e+01
 16.92          1.60000e+01
 16.94          1.40000e+01
 16.96          2.50000e+01
 16.98          2.30000e+01
 17.00          2.30000e+01
 17.02          2.50000e+01
 17.04          2.80000e+01
 17.06          3.70000e+01
 17.08          3.40000e+01
 17.10          2.60000e+01
 17.12          2.40000e+01
 17.14          1.70000e+01
 17.16          3.60000e+01
 17.18          2.90000e+01
 17.20          2.40000e+01
 17.22          2.40000e+01
 17.24          3.30000e+01
 17.26          2.40000e+01
 17.28          2.30000e+01
 17.30          2.10000e+01
 17.32          2.40000e+01
 17.34          2.40000e+01
 17.36          2.10000e+01
 17.38          2.60000e+01
 17.40          2.50000e+01
 17.42          3.30000e+01
 17.44          1.80000e+01
 17.46          3.00000e+01
 17.48          4.30000e+01
 17.50          2.90000e+01
 17.52          1.70000e+01
 17.54          2.30000e+01
 17.56          2.90000e+01
 17.58          1.50000e+01
 17.60          1.90000e+01
 17.62          2.20000e+01
 17.64          2.00000e+01
 17.66          3.20000e+01
 17.68          3.10000e+01
 17.70          2.70000e+01
 17.72          3.20000e+01
 17.74          3.60000e+01
 17.76          4.00000e+01
 17.78          2.20000e+01
 17.80          1.70000e+01
 17.82          2.00000e+01
 17.84          1.80000e+01
 17.86          1.50000e+01
 17.88          1.50000e+01
 17.90          2.10000e+01
 17.92          3.40000e+01
 17.94          3.60000e+01
 17.96          2.60000e+01
 17.98          2.10000e+01
 18.00          2.50000e+01
 18.02          2.50000e+01
 18.04          2.40000e+01
 18.06          3.30000e+01
 18.08          3.40000e+01
 18.10          2.10000e+01
 18.12          2.10000e+01
 18.14          2.20000e+01
 18.16          2.70000e+01
 18.18          1.90000e+01
 18.20          3.10000e+01
 18.22          3.40000e+01
 18.24          4.20000e+01
 18.26          4.20000e+01
 18.28          3.30000e+01
 18.30          2.10000e+01
 18.32          2.90000e+01
 18.34          2.60000e+01
 18.36          3.20000e+01
 18.38          2.20000e+01
 18.40          2.90000e+01
 18.42          2.60000e+01
 18.44          3.00000e+01
 18.46          2.20000e+01
 18.48          2.30000e+01
 18.50          1.90000e+01
 18.52          2.00000e+01
 18.54          1.80000e+01
 18.56          2.30000e+01
 18.58          2.30000e+01
 18.60          1.90000e+01
 18.62          2.90000e+01
 18.64          2.90000e+01
 18.66          2.60000e+01
 18.68          2.40000e+01
 18.70          2.20000e+01
 18.72          2.20000e+01
 18.74          3.00000e+01
 18.76          2.70000e+01
 18.78          2.40000e+01
 18.80          3.40000e+01
 18.82          3.50000e+01
 18.84          3.40000e+01
 18.86          3.00000e+01
 18.88          2.20000e+01
 18.90          2.60000e+01
 18.92          3.20000e+01
 18.94          2.20000e+01
 18.96          3.00000e+01
 18.98          2.40000e+01
 19.00          2.60000e+01
 19.02          2.80000e+01
 19.04          1.90000e+01
 19.06          2.40000e+01
 19.08          3.40000e+01
 19.10          3.70000e+01
 19.12          3.40000e+01
 19.14          2.90000e+01
 19.16          2.90000e+01
 19.18          2.60000e+01
 19.20          2.10000e+01
 19.22          3.10000e+01
 19.24          2.40000e+01
 19.26          2.20000e+01
 19.28          2.70000e+01
 19.30          3.10000e+01
 19.32          3.60000e+01
 19.34          5.00000e+01
 19.36          3.10000e+01
 19.38          3.50000e+01
 19.40          3.00000e+01
 19.42          1.60000e+01
 19.44          2.00000e+01
 19.46          2.10000e+01
 19.48          2.80000e+01
 19.50          3.10000e+01
 19.52          3.30000e+01
 19.54          2.60000e+01
 19.56          2.40000e+01
 19.58          2.40000e+01
 19.60          2.20000e+01
 19.62          2.90000e+01
 19.64          3.60000e+01
 19.66          2.80000e+01
 19.68          2.70000e+01
 19.70          3.20000e+01
 19.72          3.00000e+01
 19.74          4.00000e+01
 19.76          2.90000e+01
 19.78          3.00000e+01
 19.80          3.70000e+01
 19.82          2.40000e+01
 19.84          1.50000e+01
 19.86          4.10000e+01
 19.88          3.20000e+01
 19.90          4.00000e+01
 19.92          4.00000e+01
 19.94          2.50000e+01
 19.96          2.80000e+01
 19.98          3.30000e+01
 20.00          3.60000e+01
 20.02          4.10000e+01
 20.04          3.40000e+01
 20.06          2.50000e+01
 20.08          3.70000e+01
 20.10          3.80000e+01
 20.12          4.80000e+01
 20.14          3.40000e+01
 20.16          2.70000e+01
 20.18          2.10000e+01
 20.20          2.50000e+01
 20.22          2.60000e+01
 20.24          3.10000e+01
 20.26          2.10000e+01
 20.28          2.30000e+01
 20.30          1.60000e+01
 20.32          2.50000e+01
 20.34          3.50000e+01
 20.36          3.50000e+01
 20.38          3.30000e+01
 20.40          3.40000e+01
 20.42          2.40000e+01
 20.44          2.90000e+01
 20.46          2.90000e+01
 20.48          3.30000e+01
 20.50          2.10000e+01
 20.52          3.20000e+01
 20.54          3.10000e+01
 20.56          2.40000e+01
 20.58          2.90000e+01
 20.60          3.30000e+01
 20.62          2.40000e+01
 20.64          2.60000e+01
 20.66          3.20000e+01
 20.68          4.60000e+01
 20.70          4.40000e+01
 20.72          2.50000e+01
 20.74          2.90000e+01
 20.76          2.70000e+01
 20.78          3.40000e+01
 20.80          3.20000e+01
 20.82          3.70000e+01
 20.84          2.20000e+01
 20.86          3.30000e+01
 20.88          3.50000e+01
 20.90          2.20000e+01
 20.92          3.30000e+01
 20.94          3.80000e+01
 20.96          3.90000e+01
 20.98          5.10000e+01
 21.00          4.10000e+01
 21.02          4.00000e+01
 21.04          3.70000e+01
 21.06          2.70000e+01
 21.08          2.50000e+01
 21.10          3.00000e+01
 21.12          3.30000e+01
 21.14          2.00000e+01
 21.16          3.00000e+01
 21.18          3.40000e+01
 21.20          2.80000e+01
 21.22          3.00000e+01
 21.24          3.30000e+01
 21.26          3.00000e+01
 21.28          3.90000e+01
 21.30          3.30000e+01
 21.32          3.80000e+01
 21.34          2.60000e+01
 21.36          4.00000e+01
 21.38          4.40000e+01
 21.40          3.00000e+01
 21.42          3.30000e+01
 21.44          2.60000e+01
 21.46          2.70000e+01
 21.48          2.90000e+01
 21.50          2.70000e+01
 21.52          3.40000e+01
 21.54          4.10000e+01
 21.56          3.30000e+01
 21.58          2.70000e+01
 21.60          2.10000e+01
 21.62          2.60000e+01
 21.64          3.60000e+01
 21.66          2.60000e+01
 21.68          2.40000e+01
 21.70          1.90000e+01
 21.72          3.30000e+01
 21.74          3.70000e+01
 21.76          4.10000e+01
 21.78          3.10000e+01
 21.80          3.20000e+01
 21.82          2.40000e+01
 21.84          2.20000e+01
 21.86          3.60000e+01
 21.88          4.60000e+01
 21.90          3.80000e+01
 21.92          4.50000e+01
 21.94          3.10000e+01
 21.96          2.80000e+01
 21.98          3.40000e+01
 22.00          3.60000e+01
 22.02          2.60000e+01
 22.04          2.80000e+01
 22.06          2.90000e+01
 22.08          2.90000e+01
 22.10          2.20000e+01
 22.12          1.80000e+01
 22.14          1.60000e+01
 22.16          2.20000e+01
 22.18          3.70000e+01
 22.20          4.50000e+01
 22.22          3.50000e+01
 22.24          2.90000e+01
 22.26          2.30000e+01
 22.28          2.60000e+01
 22.30          2.60000e+01
 22.32          2.40000e+01
 22.34          3.00000e+01
 22.36          2.40000e+01
 22.38          3.20000e+01
 22.40          2.90000e+01
 22.42          2.70000e+01
 22.44          2.50000e+01
 22.46          2.90000e+01
 22.48          3.50000e+01
 22.50          3.00000e+01
 22.52          2.60000e+01
 22.54          3.20000e+01
 22.56          3.30000e+01
 22.58          2.60000e+01
 22.60          3.90000e+01
 22.62          3.20000e+01
 22.64          2.60000e+01
 22.66          3.70000e+01
 22.68          3.80000e+01
 22.70          2.80000e+01
 22.72          3.00000e+01
 22.74          2.50000e+01
 22.76          3.10000e+01
 22.78          3.10000e+01
 22.80          4.90000e+01
 22.82          3.60000e+01
 22.84          3.30000e+01
 22.86          3.70000e+01
 22.88          3.50000e+01
 22.90          3.70000e+01
 22.92          3.10000e+01
 22.94          2.90000e+01
 22.96          2.90000e+01
 22.98          2.10000e+01
 23.00          3.60000e+01
 23.02          4.20000e+01
 23.04          4.40000e+01
 23.06          3.40000e+01
 23.08          3.60000e+01
 23.10          3.70000e+01
 23.12          3.30000e+01
 23.14          5.10000e+01
 23.16          3.50000e+01
 23.18          3.30000e+01
 23.20          3.20000e+01
 23.22          3.70000e+01
 23.24          3.50000e+01
 23.26          3.30000e+01
 23.28          2.80000e+01
 23.30          3.00000e+01
 23.32          3.50000e+01
 23.34          3.80000e+01
 23.36          4.60000e+01
 23.38          3.80000e+01
 23.40          4.00000e+01
 23.42          3.20000e+01
 23.44          3.40000e+01
 23.46          2.10000e+01
 23.48          1.50000e+01
 23.50          1.50000e+01
 23.52          2.20000e+01
 23.54          3.00000e+01
 23.56          2.80000e+01
 23.58          2.50000e+01
 23.60          3.70000e+01
 23.62          2.80000e+01
 23.64          3.10000e+01
 23.66          2.70000e+01
 23.68          3.80000e+01
 23.70          4.70000e+01
 23.72          3.30000e+01
 23.74          2.70000e+01
 23.76          3.00000e+01
 23.78          2.70000e+01
 23.80          2.10000e+01
 23.82          2.30000e+01
 23.84          3.10000e+01
 23.86          3.80000e+01
 23.88          3.50000e+01
 23.90          1.30000e+01
 23.92          2.40000e+01
 23.94          2.90000e+01
 23.96          2.90000e+01
 23.98          2.80000e+01
 24.00          1.80000e+01
 24.02          2.40000e+01
 24.04          3.50000e+01
 24.06          4.00000e+01
 24.08          3.30000e+01
 24.10          3.50000e+01
 24.12          2.90000e+01
 24.14          2.80000e+01
 24.16          3.60000e+01
 24.18          3.50000e+01
 24.20          3.10000e+01
 24.22          3.50000e+01
 24.24          2.80000e+01
 24.26          2.80000e+01
 24.28          3.80000e+01
 24.30          3.80000e+01
 24.32          2.10000e+01
 24.34          2.70000e+01
 24.36          2.40000e+01
 24.38          3.10000e+01
 24.40          2.20000e+01
 24.42          3.10000e+01
 24.44          3.80000e+01
 24.46          3.30000e+01
 24.48          3.20000e+01
 24.50          3.00000e+01
 24.52          2.10000e+01
 24.54          2.80000e+01
 24.56          3.10000e+01
 24.58          4.20000e+01
 24.60          2.70000e+01
 24.62          2.80000e+01
 24.64          2.60000e+01
 24.66          2.90000e+01
 24.68          3.60000e+01
 24.70          3.40000e+01
 24.72          3.40000e+01
 24.74          3.70000e+01
 24.76          4.80000e+01
 24.78          3.10000e+01
 24.80          3.20000e+01
 24.82          3.80000e+01
 24.84          3.40000e+01
 24.86          2.90000e+01
 24.88          3.10000e+01
 24.90          3.60000e+01
 24.92          3.50000e+01
 24.94          4.60000e+01
 24.96          3.30000e+01
 24.98          2.50000e+01
 25.00          2.60000e+01
 25.02          2.70000e+01
 25.04          1.70000e+01
 25.06          3.40000e+01
 25.08          4.40000e+01
 25.10          3.50000e+01
 25.12          3.90000e+01
 25.14          3.50000e+01
 25.16          2.40000e+01
 25.18          1.90000e+01
 25.20          2.90000e+01
 25.22          3.30000e+01
 25.24          3.30000e+01
 25.26          3.40000e+01
 25.28          3.20000e+01
 25.30          2.20000e+01
 25.32          2.90000e+01
 25.34          3.50000e+01
 25.36          3.70000e+01
 25.38          2.70000e+01
 25.40          2.90000e+01
 25.42          3.60000e+01
 25.44          3.00000e+01
 25.46          2.20000e+01
 25.48          3.10000e+01
 25.50          2.40000e+01
 25.52          3.40000e+01
 25.54          2.90000e+01
 25.56          2.70000e+01
 25.58          3.20000e+01
 25.60          3.80000e+01
 25.62          2.40000e+01
 25.64          4.40000e+01
 25.66          2.60000e+01
 25.68          2.20000e+01
 25.70          2.80000e+01
 25.72          3.50000e+01
 25.74          3.00000e+01
 25.76          2.90000e+01
 25.78          2.20000e+01
 25.80          3.30000e+01
 25.82          2.70000e+01
 25.84          2.30000e+01
 25.86          3.00000e+01
 25.88          4.30000e+01
 25.90          4.50000e+01
 25.92          3.50000e+01
 25.94          3.50000e+01
 25.96          1.60000e+01
 25.98          2.30000e+01
 26.00          3.10000e+01
 26.02          2.50000e+01
 26.04          3.70000e+01
 26.06          2.80000e+01
 26.08          3.10000e+01
 26.10          2.70000e+01
 26.12          3.70000e+01
 26.14          4.10000e+01
 26.16          3.60000e+01
 26.18          4.10000e+01
 26.20          4.10000e+01
 26.22          3.40000e+01
 26.24          3.00000e+01
 26.26          3.40000e+01
 26.28          4.30000e+01
 26.30          3.80000e+01
 26.32          4.60000e+01
 26.34          3.20000e+01
 26.36          3.50000e+01
 26.38          2.90000e+01
 26.40          2.80000e+01
 26.42          3.20000e+01
 26.44          2.30000e+01
 26.46          2.60000e+01
 26.48          3.60000e+01
 26.50          3.40000e+01
 26.52          2.90000e+01
 26.54          2.10000e+01
 26.56          2.10000e+01
 26.58          2.40000e+01
 26.60          2.80000e+01
 26.62          2.30000e+01
 26.64          2.80000e+01
 26.66          3.30000e+01
 26.68          3.90000e+01
 26.70          3.20000e+01
 26.72          3.70000e+01
 26.74          3.80000e+01
 26.76          3.20000e+01
 26.78          2.80000e+01
 26.80          2.80000e+01
 26.82          3.50000e+01
 26.84          1.90000e+01
 26.86          2.20000e+01
 26.88          2.70000e+01
 26.90          2.80000e+01
 26.92          3.30000e+01
 26.94          3.20000e+01
 26.96          3.30000e+01
 26.98          3.90000e+01
 27.00          4.00000e+01
 27.02          3.00000e+01
 27.04          2.90000e+01
 27.06          2.80000e+01
 27.08          3.90000e+01
 27.10          4.10000e+01
 27.12          3.00000e+01
 27.14          3.20000e+01
 27.16          3.00000e+01
 27.18          3.80000e+01
 27.20          3.70000e+01
 27.22          2.50000e+01
 27.24          3.30000e+01
 27.26          3.20000e+01
 27.28          4.80000e+01
 27.30          3.50000e+01
 27.32          3.90000e+01
 27.34          3.10000e+01
 27.36          2.80000e+01
 27.38          2.10000e+01
 27.40          2.20000e+01
 27.42          2.90000e+01
 27.44          3.10000e+01
 27.46          3.70000e+01
 27.48          3.50000e+01
 27.50          2.60000e+01
 27.52          3.60000e+01
 27.54          3.30000e+01
 27.56          3.00000e+01
 27.58          4.20000e+01
 27.60          3.60000e+01
 27.62          4.00000e+01
 27.64          3.60000e+01
 27.66          2.70000e+01
 27.68          2.80000e+01
 27.70          4.30000e+01
 27.72          3.70000e+01
 27.74          3.50000e+01
 27.76          2.20000e+01
 27.78          2.80000e+01
 27.80          3.30000e+01
 27.82          2.90000e+01
 27.84          3.30000e+01
 27.86          3.80000e+01
 27.88          3.30000e+01
 27.90          3.20000e+01
 27.92          3.00000e+01
 27.94          2.60000e+01
 27.96          3.80000e+01
 27.98          3.80000e+01
 28.00          2.20000e+01
 28.02          3.80000e+01
 28.04          3.90000e+01
 28.06          2.60000e+01
 28.08          2.50000e+01
 28.10          3.50000e+01
 28.12          4.40000e+01
 28.14          4.90000e+01
 28.16          2.50000e+01
 28.18          2.70000e+01
 28.20          2.70000e+01
 28.22          2.10000e+01
 28.24          2.70000e+01
 28.26          3.10000e+01
 28.28          3.70000e+01
 28.30          3.60000e+01
 28.32          2.60000e+01
 28.34          3.40000e+01
 28.36          4.20000e+01
 28.38          3.00000e+01
 28.40          3.10000e+01
 28.42          3.00000e+01
 28.44          2.80000e+01
 28.46          2.50000e+01
 28.48          2.60000e+01
 28.50          3.70000e+01
 28.52          3.00000e+01
 28.54          3.60000e+01
 28.56          4.00000e+01
 28.58          3.40000e+01
 28.60          3.10000e+01
 28.62          2.00000e+01
 28.64          3.40000e+01
 28.66          2.40000e+01
 28.68          4.10000e+01
 28.70          4.10000e+01
 28.72          3.00000e+01
 28.74          2.30000e+01
 28.76          3.50000e+01
 28.78          4.10000e+01
 28.80          3.70000e+01
 28.82          3.70000e+01
 28.84          3.00000e+01
 28.86          2.80000e+01
 28.88          3.80000e+01
 28.90          3.20000e+01
 28.92          3.30000e+01
 28.94          4.10000e+01
 28.96          4.50000e+01
 28.98          4.10000e+01
 29.00          2.10000e+01
 29.02          2.50000e+01
 29.04          3.10000e+01
 29.06          2.70000e+01
 29.08          3.20000e+01
 29.10          2.60000e+01
 29.12          3.00000e+01
 29.14          3.60000e+01
 29.16          3.00000e+01
 29.18          1.70000e+01
 29.20          2.30000e+01
 29.22          3.60000e+01
 29.24          2.40000e+01
 29.26          2.70000e+01
 29.28          3.00000e+01
 29.30          2.40000e+01
 29.32          3.40000e+01
 29.34          4.10000e+01
 29.36          2.70000e+01
 29.38          3.40000e+01
 29.40          2.30000e+01
 29.42          3.50000e+01
 29.44          4.00000e+01
 29.46          2.80000e+01
 29.48          3.20000e+01
 29.50          3.90000e+01
 29.52          3.80000e+01
 29.54          3.20000e+01
 29.56          2.80000e+01
 29.58          1.90000e+01
 29.60          2.60000e+01
 29.62          2.80000e+01
 29.64          2.90000e+01
 29.66          2.90000e+01
 29.68          3.00000e+01
 29.70          3.30000e+01
 29.72          3.50000e+01
 29.74          3.40000e+01
 29.76          3.30000e+01
 29.78          4.00000e+01
 29.80          3.40000e+01
 29.82          3.00000e+01
 29.84          1.70000e+01
 29.86          2.80000e+01
 29.88          4.00000e+01
 29.90          2.60000e+01
 29.92          3.70000e+01
 29.94          2.80000e+01
 29.96          3.40000e+01
 29.98          2.90000e+01
 30.00          3.70000e+01
 30.02          4.00000e+01
 30.04          4.00000e+01
 30.06          2.20000e+01
 30.08          2.30000e+01
 30.10          3.00000e+01
 30.12          2.80000e+01
 30.14          2.40000e+01
 30.16          3.00000e+01
 30.18          4.00000e+01
 30.20          3.30000e+01
 30.22          2.50000e+01
 30.24          3.10000e+01
 30.26          2.90000e+01
 30.28          3.60000e+01
 30.30          2.60000e+01
 30.32          2.70000e+01
 30.34          3.10000e+01
 30.36          2.40000e+01
 30.38          3.20000e+01
 30.40          3.60000e+01
 30.42          2.80000e+01
 30.44          3.80000e+01
 30.46          2.80000e+01
 30.48          2.40000e+01
 30.50          2.10000e+01
 30.52          3.90000e+01
 30.54          2.80000e+01
 30.56          2.60000e+01
 30.58          3.20000e+01
 30.60          2.70000e+01
 30.62          2.60000e+01
 30.64          2.80000e+01
 30.66          2.10000e+01
 30.68          2.30000e+01
 30.70          3.30000e+01
 30.72          4.30000e+01
 30.74          3.60000e+01
 30.76          3.20000e+01
 30.78          3.20000e+01
 30.80          3.60000e+01
 30.82          2.80000e+01
 30.84          3.00000e+01
 30.86          4.00000e+01
 30.88          4.20000e+01
 30.90          2.60000e+01
 30.92          2.20000e+01
 30.94          3.10000e+01
 30.96          2.60000e+01
 30.98          2.40000e+01
 31.00          2.90000e+01
 31.02          3.50000e+01
 31.04          3.60000e+01
 31.06          3.40000e+01
 31.08          3.50000e+01
 31.10          3.20000e+01
 31.12          4.60000e+01
 31.14          3.30000e+01
 31.16          2.80000e+01
 31.18          2.60000e+01
 31.20          3.10000e+01
 31.22          4.40000e+01
 31.24          3.80000e+01
 31.26          3.90000e+01
 31.28          3.20000e+01
 31.30          3.10000e+01
 31.32          3.00000e+01
 31.34          4.40000e+01
 31.36          3.30000e+01
 31.38          3.00000e+01
 31.40          3.20000e+01
 31.42          2.40000e+01
 31.44          2.70000e+01
 31.46          2.70000e+01
 31.48          2.40000e+01
 31.50          2.90000e+01
 31.52          4.90000e+01
 31.54          3.90000e+01
 31.56          3.30000e+01
 31.58          2.20000e+01
 31.60          2.50000e+01
 31.62          2.40000e+01
 31.64          2.10000e+01
 31.66          2.30000e+01
 31.68          1.70000e+01
 31.70          3.50000e+01
 31.72          2.60000e+01
 31.74          1.80000e+01
 31.76          4.50000e+01
 31.78          4.20000e+01
 31.80          3.40000e+01
 31.82          3.20000e+01
 31.84          2.70000e+01
 31.86          2.40000e+01
 31.88          2.70000e+01
 31.90          2.80000e+01
 31.92          4.80000e+01
 31.94          2.90000e+01
 31.96          3.00000e+01
 31.98          3.30000e+01
 32.00          3.60000e+01
 32.02          3.20000e+01
 32.04          2.80000e+01
 32.06          5.00000e+01
 32.08          3.20000e+01
 32.10          2.10000e+01
 32.12          3.50000e+01
 32.14          2.60000e+01
 32.16          2.50000e+01
 32.18          2.70000e+01
 32.20          3.40000e+01
 32.22          2.80000e+01
 32.24          3.70000e+01
 32.26          3.10000e+01
 32.28          3.40000e+01
 32.30          3.10000e+01
 32.32          3.70000e+01
 32.34          3.30000e+01
 32.36          3.80000e+01
 32.38          2.50000e+01
 32.40          2.90000e+01
 32.42          2.40000e+01
 32.44          2.30000e+01
 32.46          2.30000e+01
 32.48          3.10000e+01
 32.50          2.20000e+01
 32.52          3.60000e+01
 32.54          2.60000e+01
 32.56          2.20000e+01
 32.58          2.70000e+01
 32.60          3.00000e+01
 32.62          2.80000e+01
 32.64          3.30000e+01
 32.66          2.70000e+01
 32.68          3.10000e+01
 32.70          2.60000e+01
 32.72          2.70000e+01
 32.74          2.70000e+01
 32.76          2.70000e+01
 32.78          2.70000e+01
 32.80          2.30000e+01
 32.82          2.40000e+01
 32.84          3.70000e+01
 32.86          3.40000e+01
 32.88          2.70000e+01
 32.90          2.80000e+01
 32.92          3.00000e+01
 32.94          2.90000e+01
 32.96          2.30000e+01
 32.98          2.10000e+01
 33.00          3.30000e+01
 33.02          2.80000e+01
 33.04          3.20000e+01
 33.06          4.20000e+01
 33.08          3.90000e+01
 33.10          2.70000e+01
 33.12          2.90000e+01
 33.14          3.00000e+01
 33.16          2.90000e+01
 33.18          2.60000e+01
 33.20          2.90000e+01
 33.22          3.30000e+01
 33.24          3.10000e+01
 33.26          2.60000e+01
 33.28          2.30000e+01
 33.30          2.70000e+01
 33.32          3.00000e+01
 33.34          3.30000e+01
 33.36          2.90000e+01
 33.38          3.60000e+01
 33.40          3.30000e+01
 33.42          2.10000e+01
 33.44          2.90000e+01
 33.46          2.80000e+01
 33.48          2.60000e+01
 33.50          2.20000e+01
 33.52          2.70000e+01
 33.54          2.90000e+01
 33.56          2.60000e+01
 33.58          3.10000e+01
 33.60          3.20000e+01
 33.62          3.30000e+01
 33.64          3.20000e+01
 33.66          2.80000e+01
 33.68          3.20000e+01
 33.70          2.60000e+01
 33.72          3.70000e+01
 33.74          3.80000e+01
 33.76          3.50000e+01
 33.78          3.50000e+01
 33.80          4.10000e+01
 33.82          3.30000e+01
 33.84          3.80000e+01
 33.86          3.30000e+01
 33.88          3.50000e+01
 33.90          3.10000e+01
 33.92          3.30000e+01
 33.94          2.90000e+01
 33.96          3.30000e+01
 33.98          3.60000e+01
 34.00          3.90000e+01
 34.02          2.90000e+01
 34.04          2.90000e+01
 34.06          3.30000e+01
 34.08          2.80000e+01
 34.10          3.40000e+01
 34.12          3.30000e+01
 34.14          2.70000e+01
 34.16          2.90000e+01
 34.18          2.30000e+01
 34.20          2.70000e+01
 34.22          3.50000e+01
 34.24          3.90000e+01
 34.26          3.10000e+01
 34.28          2.80000e+01
 34.30          2.80000e+01
 34.32          3.30000e+01
 34.34          2.80000e+01
 34.36          2.70000e+01
 34.38          2.10000e+01
 34.40          2.70000e+01
 34.42          2.90000e+01
 34.44          2.70000e+01
 34.46          3.10000e+01
 34.48          3.50000e+01
 34.50          3.00000e+01
 34.52          3.10000e+01
 34.54          3.20000e+01
 34.56          3.70000e+01
 34.58          2.70000e+01
 34.60          3.30000e+01
 34.62          3.50000e+01
 34.64          3.00000e+01
 34.66          3.40000e+01
 34.68          3.40000e+01
 34.70          2.50000e+01
 34.72          2.20000e+01
 34.74          3.00000e+01
 34.76          3.30000e+01
 34.78          3.10000e+01
 34.80          4.10000e+01
 34.82          3.40000e+01
 34.84          2.40000e+01
 34.86          2.60000e+01
 34.88          3.60000e+01
 34.90          3.90000e+01
 34.92          3.00000e+01
 34.94          2.30000e+01
 34.96          2.60000e+01
 34.98          2.60000e+01
 35.00          3.20000e+01
 35.02          3.90000e+01
 35.04          3.80000e+01
 35.06          4.50000e+01
 35.08          3.60000e+01
 35.10          3.00000e+01
 35.12          3.00000e+01
 35.14          3.20000e+01
 35.16          3.60000e+01
 35.18          2.70000e+01
 35.20          1.70000e+01
 35.22          3.30000e+01
 35.24          3.30000e+01
 35.26          2.70000e+01
 35.28          2.40000e+01
 35.30          4.60000e+01
 35.32          4.10000e+01
 35.34          2.90000e+01
 35.36          4.10000e+01
 35.38          2.80000e+01
 35.40          2.40000e+01
 35.42          3.00000e+01
 35.44          3.60000e+01
 35.46          2.40000e+01
 35.48          2.40000e+01
 35.50          2.80000e+01
 35.52          3.90000e+01
 35.54          4.60000e+01
 35.56          3.20000e+01
 35.58          2.50000e+01
 35.60          3.80000e+01
 35.62          3.70000e+01
 35.64          3.00000e+01
 35.66          2.50000e+01
 35.68          2.50000e+01
 35.70          4.00000e+01
 35.72          3.00000e+01
 35.74          3.00000e+01
 35.76          2.50000e+01
 35.78          4.10000e+01
 35.80          3.30000e+01
 35.82          3.30000e+01
 35.84          2.60000e+01
 35.86          3.50000e+01
 35.88          2.60000e+01
 35.90          2.50000e+01
 35.92          2.70000e+01
 35.94          2.90000e+01
 35.96          2.90000e+01
 35.98          5.00000e+01
 36.00          4.20000e+01
 36.02          3.50000e+01
 36.04          3.50000e+01
 36.06          4.10000e+01
 36.08          3.50000e+01
 36.10          3.30000e+01
 36.12          3.50000e+01
 36.14          2.20000e+01
 36.16          2.00000e+01
 36.18          3.20000e+01
 36.20          2.60000e+01
 36.22          2.20000e+01
 36.24          1.80000e+01
 36.26          3.20000e+01
 36.28          3.10000e+01
 36.30          3.90000e+01
 36.32          3.60000e+01
 36.34          3.40000e+01
 36.36          3.30000e+01
 36.38          2.90000e+01
 36.40          2.50000e+01
 36.42          1.80000e+01
 36.44          3.30000e+01
 36.46          3.60000e+01
 36.48          3.10000e+01
 36.50          3.00000e+01
 36.52          3.30000e+01
 36.54          2.60000e+01
 36.56          2.60000e+01
 36.58          2.90000e+01
 36.60          2.30000e+01
 36.62          2.20000e+01
 36.64          2.40000e+01
 36.66          2.70000e+01
 36.68          2.40000e+01
 36.70          2.30000e+01
 36.72          2.50000e+01
 36.74          3.20000e+01
 36.76          2.70000e+01
 36.78          2.30000e+01
 36.80          3.10000e+01
 36.82          3.80000e+01
 36.84          4.50000e+01
 36.86          3.30000e+01
 36.88          2.70000e+01
 36.90          1.90000e+01
 36.92          1.90000e+01
 36.94          2.90000e+01
 36.96          2.50000e+01
 36.98          3.30000e+01
 37.00          3.30000e+01
 37.02          2.90000e+01
 37.04          3.40000e+01
 37.06          2.10000e+01
 37.08          2.30000e+01
 37.10          3.30000e+01
 37.12          2.80000e+01
 37.14          2.00000e+01
 37.16          3.10000e+01
 37.18          3.90000e+01
 37.20          3.10000e+01
 37.22          2.80000e+01
 37.24          3.50000e+01
 37.26          3.90000e+01
 37.28          3.30000e+01
 37.30          3.20000e+01
 37.32          3.00000e+01
 37.34          3.00000e+01
 37.36          3.20000e+01
 37.38          2.90000e+01
 37.40          3.50000e+01
 37.42          3.00000e+01
 37.44          3.00000e+01
 37.46          3.10000e+01
 37.48          3.30000e+01
 37.50          3.70000e+01
 37.52          3.50000e+01
 37.54          2.10000e+01
 37.56          3.10000e+01
 37.58          3.80000e+01
 37.60          2.90000e+01
 37.62          2.30000e+01
 37.64          3.60000e+01
 37.66          4.30000e+01
 37.68          3.30000e+01
 37.70          2.70000e+01
 37.72          3.40000e+01
 37.74          2.90000e+01
 37.76          2.90000e+01
 37.78          2.60000e+01
 37.80          3.40000e+01
 37.82          2.90000e+01
 37.84          2.80000e+01
 37.86          3.20000e+01
 37.88          2.50000e+01
 37.90          2.40000e+01
 37.92          3.60000e+01
 37.94          2.50000e+01
 37.96          2.10000e+01
 37.98          2.80000e+01
 38.00          3.20000e+01
 38.02          3.50000e+01
 38.04          3.00000e+01
 38.06          2.80000e+01
 38.08          2.60000e+01
 38.10          2.20000e+01
 38.12          2.20000e+01
 38.14          2.50000e+01
 38.16          2.60000e+01
 38.18          2.50000e+01
 38.20          2.90000e+01
 38.22          3.60000e+01
 38.24          3.90000e+01
 38.26          4.30000e+01
 38.28          4.00000e+01
 38.30          3.60000e+01
 38.32          3.90000e+01
 38.34          3.00000e+01
 38.36          2.60000e+01
 38.38          4.00000e+01
 38.40          4.50000e+01
 38.42          2.70000e+01
 38.44          2.70000e+01
 38.46          2.50000e+01
 38.48          2.70000e+01
 38.50          3.00000e+01
 38.52          4.00000e+01
 38.54          4.80000e+01
 38.56          3.20000e+01
 38.58          2.70000e+01
 38.60          3.30000e+01
 38.62          2.40000e+01
 38.64          2.40000e+01
 38.66          3.70000e+01
 38.68          2.60000e+01
 38.70          3.30000e+01
 38.72          3.10000e+01
 38.74          4.20000e+01
 38.76          3.20000e+01
 38.78          3.10000e+01
 38.80          3.20000e+01
 38.82          2.00000e+01
 38.84          2.90000e+01
 38.86          2.70000e+01
 38.88          2.70000e+01
 38.90          2.10000e+01
 38.92          2.80000e+01
 38.94          2.70000e+01
 38.96          4.00000e+01
 38.98          3.20000e+01
 39.00          2.70000e+01
 39.02          2.30000e+01
 39.04          2.40000e+01
 39.06          3.30000e+01
 39.08          3.70000e+01
 39.10          2.90000e+01
 39.12          3.10000e+01
 39.14          3.10000e+01
 39.16          3.00000e+01
 39.18          4.20000e+01
 39.20          2.90000e+01
 39.22          2.30000e+01
 39.24          2.90000e+01
 39.26          4.30000e+01
 39.28          4.60000e+01
 39.30          3.00000e+01
 39.32          3.60000e+01
 39.34          3.20000e+01
 39.36          2.60000e+01
 39.38          2.20000e+01
 39.40          2.80000e+01
 39.42          3.20000e+01
 39.44          2.30000e+01
 39.46          3.70000e+01
 39.48          3.20000e+01
 39.50          3.50000e+01
 39.52          3.00000e+01
 39.54          2.60000e+01
 39.56          2.50000e+01
 39.58          2.40000e+01
 39.60          3.50000e+01
 39.62          3.30000e+01
 39.64          2.30000e+01
 39.66          2.40000e+01
 39.68          3.00000e+01
 39.70          3.10000e+01
 39.72          2.70000e+01
 39.74          2.50000e+01
 39.76          2.20000e+01
 39.78          2.90000e+01
 39.80          3.60000e+01
 39.82          4.20000e+01
 39.84          2.50000e+01
 39.86          2.00000e+01
 39.88          3.20000e+01
 39.90          3.00000e+01
 39.92          3.40000e+01
 39.94          2.70000e+01
 39.96          2.80000e+01
 39.98          2.20000e+01
 40.00          2.10000e+01
 40.02          1.60000e+01
 40.04          1.70000e+01
 40.06          2.60000e+01
 40.08          2.20000e+01
 40.10          3.10000e+01
 40.12          3.00000e+01
 40.14          3.40000e+01
 40.16          3.30000e+01
 40.18          2.80000e+01
 40.20          2.90000e+01
 40.22          3.00000e+01
 40.24          2.80000e+01
 40.26          2.70000e+01
 40.28          2.90000e+01
 40.30          4.20000e+01
 40.32          4.10000e+01
 40.34          2.60000e+01
 40.36          2.40000e+01
 40.38          2.50000e+01
 40.40          2.90000e+01
 40.42          3.20000e+01
 40.44          2.50000e+01
 40.46          3.30000e+01
 40.48          3.30000e+01
 40.50          3.30000e+01
 40.52          3.20000e+01
 40.54          2.20000e+01
 40.56          3.00000e+01
 40.58          4.00000e+01
 40.60          3.20000e+01
 40.62          2.60000e+01
 40.64          2.40000e+01
 40.66          2.70000e+01
 40.68          3.00000e+01
 40.70          3.40000e+01
 40.72          3.00000e+01
 40.74          3.30000e+01
 40.76          3.10000e+01
 40.78          2.40000e+01
 40.80          2.10000e+01
 40.82          2.70000e+01
 40.84          2.80000e+01
 40.86          3.40000e+01
 40.88          3.50000e+01
 40.90          2.20000e+01
 40.92          3.00000e+01
 40.94          2.30000e+01
 40.96          3.40000e+01
 40.98          3.80000e+01
 41.00          2.80000e+01
 41.02          2.60000e+01
 41.04          1.60000e+01
 41.06          3.20000e+01
 41.08          3.40000e+01
 41.10          2.30000e+01
 41.12          3.90000e+01
 41.14          2.70000e+01
 41.16          1.80000e+01
 41.18          2.20000e+01
 41.20          3.40000e+01
 41.22          2.90000e+01
 41.24          2.90000e+01
 41.26          3.00000e+01
 41.28          2.10000e+01
 41.30          2.90000e+01
 41.32          3.80000e+01
 41.34          3.50000e+01
 41.36          2.70000e+01
 41.38          2.50000e+01
 41.40          2.50000e+01
 41.42          2.20000e+01
 41.44          2.30000e+01
 41.46          4.10000e+01
 41.48          3.40000e+01
 41.50          2.40000e+01
 41.52          2.90000e+01
 41.54          2.40000e+01
 41.56          3.10000e+01
 41.58          3.20000e+01
 41.60          2.70000e+01
 41.62          2.70000e+01
 41.64          2.00000e+01
 41.66          3.20000e+01
 41.68          2.10000e+01
 41.70          2.90000e+01
 41.72          3.10000e+01
 41.74          2.90000e+01
 41.76          4.70000e+01
 41.78          4.10000e+01
 41.80          4.10000e+01
 41.82          3.40000e+01
 41.84          3.90000e+01
 41.86          3.10000e+01
 41.88          2.90000e+01
 41.90          2.60000e+01
 41.92          2.40000e+01
 41.94          1.50000e+01
 41.96          3.70000e+01
 41.98          3.90000e+01
 42.00          2.60000e+01
 42.02          2.50000e+01
 42.04          2.80000e+01
 42.06          2.10000e+01
 42.08          2.70000e+01
 42.10          3.00000e+01
 42.12          2.70000e+01
 42.14          2.10000e+01
 42.16          1.10000e+01
 42.18          2.40000e+01
 42.20          3.50000e+01
 42.22          3.90000e+01
 42.24          3.80000e+01
 42.26          3.20000e+01
 42.28          4.10000e+01
 42.30          3.10000e+01
 42.32          3.10000e+01
 42.34          3.80000e+01
 42.36          3.60000e+01
 42.38          2.90000e+01
 42.40          1.90000e+01
 42.42          3.00000e+01
 42.44          3.60000e+01
 42.46          2.50000e+01
 42.48          2.00000e+01
 42.50          2.60000e+01
 42.52          2.10000e+01
 42.54          2.00000e+01
 42.56          2.70000e+01
 42.58          2.80000e+01
 42.60          2.70000e+01
 42.62          2.20000e+01
 42.64          3.30000e+01
 42.66          3.20000e+01
 42.68          2.60000e+01
 42.70          2.30000e+01
 42.72          2.10000e+01
 42.74          1.90000e+01
 42.76          2.20000e+01
 42.78          1.80000e+01
 42.80          2.70000e+01
 42.82          2.20000e+01
 42.84          2.30000e+01
 42.86          2.50000e+01
 42.88          4.10000e+01
 42.90          3.00000e+01
 42.92          3.60000e+01
 42.94          4.40000e+01
 42.96          2.80000e+01
 42.98          2.60000e+01
 43.00          3.30000e+01
 43.02          2.90000e+01
 43.04          3.60000e+01
 43.06          2.40000e+01
 43.08          2.50000e+01
 43.10          2.50000e+01
 43.12          2.30000e+01
 43.14          3.10000e+01
 43.16          2.60000e+01
 43.18          2.40000e+01
 43.20          2.30000e+01
 43.22          2.10000e+01
 43.24          2.70000e+01
 43.26          2.90000e+01
 43.28          3.90000e+01
 43.30          2.50000e+01
 43.32          3.10000e+01
 43.34          2.80000e+01
 43.36          2.50000e+01
 43.38          2.40000e+01
 43.40          3.00000e+01
 43.42          3.10000e+01
 43.44          3.10000e+01
 43.46          2.80000e+01
 43.48          3.00000e+01
 43.50          3.50000e+01
 43.52          2.80000e+01
 43.54          2.70000e+01
 43.56          4.40000e+01
 43.58          3.10000e+01
 43.60          2.60000e+01
 43.62          3.10000e+01
 43.64          3.70000e+01
 43.66          2.80000e+01
 43.68          2.40000e+01
 43.70          3.20000e+01
 43.72          3.10000e+01
 43.74          2.40000e+01
 43.76          2.40000e+01
 43.78          3.20000e+01
 43.80          3.00000e+01
 43.82          2.80000e+01
 43.84          2.00000e+01
 43.86          2.20000e+01
 43.88          2.40000e+01
 43.90          2.60000e+01
 43.92          3.00000e+01
 43.94          5.30000e+01
 43.96          3.20000e+01
 43.98          1.90000e+01
 44.00          2.50000e+01
 44.02          2.00000e+01
 44.04          2.60000e+01
 44.06          3.40000e+01
 44.08          2.80000e+01
 44.10          3.00000e+01
 44.12          2.10000e+01
 44.14          2.50000e+01
 44.16          2.90000e+01
 44.18          4.20000e+01
 44.20          3.40000e+01
 44.22          2.20000e+01
 44.24          2.30000e+01
 44.26          2.10000e+01
 44.28          2.50000e+01
 44.30          2.50000e+01
 44.32          2.70000e+01
 44.34          2.70000e+01
 44.36          2.10000e+01
 44.38          2.50000e+01
 44.40          3.70000e+01
 44.42          3.20000e+01
 44.44          3.50000e+01
 44.46          3.50000e+01
 44.48          1.80000e+01
 44.50          2.10000e+01
 44.52          2.40000e+01
 44.54          2.80000e+01
 44.56          1.80000e+01
 44.58          2.40000e+01
 44.60          2.10000e+01
 44.62          2.70000e+01
 44.64          3.60000e+01
 44.66          3.10000e+01
 44.68          3.10000e+01
 44.70          3.20000e+01
 44.72          3.10000e+01
 44.74          2.80000e+01
 44.76          2.50000e+01
 44.78          2.60000e+01
 44.80          2.20000e+01
 44.82          1.70000e+01
 44.84          2.50000e+01
 44.86          3.30000e+01
 44.88          2.90000e+01
 44.90          1.90000e+01
 44.92          2.10000e+01
 44.94          2.30000e+01
 44.96          3.30000e+01
 44.98          2.50000e+01
 45.00          2.10000e+01
 45.02          2.40000e+01
 45.04          2.20000e+01
 45.06          2.60000e+01
 45.08          2.70000e+01
 45.10          3.00000e+01
 45.12          3.00000e+01
 45.14          2.60000e+01
 45.16          2.60000e+01
 45.18          1.70000e+01
 45.20          1.40000e+01
 45.22          2.80000e+01
 45.24          2.70000e+01
 45.26          3.10000e+01
 45.28          1.80000e+01
 45.30          2.10000e+01
 45.32          2.60000e+01
 45.34          2.90000e+01
 45.36          3.00000e+01
 45.38          2.60000e+01
 45.40          1.50000e+01
 45.42          1.90000e+01
 45.44          2.20000e+01
 45.46          3.70000e+01
 45.48          2.90000e+01
 45.50          2.80000e+01
 45.52          2.90000e+01
 45.54          3.10000e+01
 45.56          2.90000e+01
 45.58          3.60000e+01
 45.60          2.70000e+01
 45.62          2.30000e+01
 45.64          3.80000e+01
 45.66          3.80000e+01
 45.68          2.40000e+01
 45.70          3.10000e+01
 45.72          2.40000e+01
 45.74          2.80000e+01
 45.76          2.70000e+01
 45.78          2.60000e+01
 45.80          2.90000e+01
 45.82          3.30000e+01
 45.84          2.30000e+01
 45.86          1.80000e+01
 45.88          2.40000e+01
 45.90          3.20000e+01
 45.92          3.00000e+01
 45.94          2.50000e+01
 45.96          3.10000e+01
 45.98          2.80000e+01
 46.00          2.90000e+01
 46.02          2.70000e+01
 46.04          1.90000e+01
 46.06          2.60000e+01
 46.08          2.10000e+01
 46.10          1.60000e+01
 46.12          1.70000e+01
 46.14          2.80000e+01
 46.16          2.60000e+01
 46.18          2.70000e+01
 46.20          3.20000e+01
 46.22          2.40000e+01
 46.24          2.10000e+01
 46.26          2.70000e+01
 46.28          2.80000e+01
 46.30          4.10000e+01
 46.32          3.10000e+01
 46.34          3.20000e+01
 46.36          2.70000e+01
 46.38          2.80000e+01
 46.40          3.00000e+01
 46.42          2.10000e+01
 46.44          2.20000e+01
 46.46          2.50000e+01
 46.48          2.80000e+01
 46.50          2.90000e+01
 46.52          3.10000e+01
 46.54          3.30000e+01
 46.56          2.20000e+01
 46.58          2.50000e+01
 46.60          3.80000e+01
 46.62          2.80000e+01
 46.64          2.70000e+01
 46.66          2.40000e+01
 46.68          2.50000e+01
 46.70          2.70000e+01
 46.72          2.60000e+01
 46.74          1.90000e+01
 46.76          1.90000e+01
 46.78          1.80000e+01
 46.80          2.20000e+01
 46.82          2.90000e+01
 46.84          3.00000e+01
 46.86          2.60000e+01
 46.88          2.20000e+01
 46.90          3.40000e+01
 46.92          2.20000e+01
 46.94          2.60000e+01
 46.96          2.40000e+01
 46.98          2.30000e+01
 47.00          4.70000e+01
 47.02          2.60000e+01
 47.04          2.00000e+01
 47.06          1.90000e+01
 47.08          2.50000e+01
 47.10          2.10000e+01
 47.12          2.80000e+01
 47.14          2.70000e+01
 47.16          2.70000e+01
 47.18          2.10000e+01
 47.20          3.20000e+01
 47.22          3.60000e+01
 47.24          1.60000e+01
 47.26          1.90000e+01
 47.28          2.30000e+01
 47.30          2.40000e+01
 47.32          2.20000e+01
 47.34          2.10000e+01
 47.36          2.50000e+01
 47.38          3.00000e+01
 47.40          3.60000e+01
 47.42          3.50000e+01
 47.44          2.00000e+01
 47.46          2.50000e+01
 47.48          2.60000e+01
 47.50          3.30000e+01
 47.52          3.70000e+01
 47.54          2.50000e+01
 47.56          2.50000e+01
 47.58          2.20000e+01
 47.60          4.40000e+01
 47.62          2.80000e+01
 47.64          3.10000e+01
 47.66          2.50000e+01
 47.68          3.70000e+01
 47.70          2.90000e+01
 47.72          2.60000e+01
 47.74          2.50000e+01
 47.76          1.90000e+01
 47.78          3.50000e+01
 47.80          2.40000e+01
 47.82          2.00000e+01
 47.84          3.10000e+01
 47.86          3.50000e+01
 47.88          3.80000e+01
 47.90          2.40000e+01
 47.92          3.00000e+01
 47.94          2.90000e+01
 47.96          2.00000e+01
 47.98          1.70000e+01
 48.00          2.90000e+01
 48.02          3.00000e+01
 48.04          2.80000e+01
 48.06          2.60000e+01
 48.08          2.70000e+01
 48.10          2.10000e+01
 48.12          2.40000e+01
 48.14          3.50000e+01
 48.16          2.50000e+01
 48.18          3.10000e+01
 48.20          2.70000e+01
 48.22          3.30000e+01
 48.24          3.60000e+01
 48.26          3.00000e+01
 48.28          1.10000e+01
 48.30          2.30000e+01
 48.32          2.90000e+01
 48.34          2.00000e+01
 48.36          2.10000e+01
 48.38          2.20000e+01
 48.40          2.20000e+01
 48.42          2.10000e+01
 48.44          2.20000e+01
 48.46          1.60000e+01
 48.48          2.10000e+01
 48.50          1.70000e+01
 48.52          2.30000e+01
 48.54          3.10000e+01
 48.56          2.90000e+01
 48.58          3.10000e+01
 48.60          2.50000e+01
 48.62          1.40000e+01
 48.64          1.60000e+01
 48.66          2.20000e+01
 48.68          1.90000e+01
 48.70          1.80000e+01
 48.72          3.20000e+01
 48.74          3.00000e+01
 48.76          1.90000e+01
 48.78          2.30000e+01
 48.80          2.10000e+01
 48.82          2.90000e+01
 48.84          2.40000e+01
 48.86          2.40000e+01
 48.88          2.60000e+01
 48.90          2.40000e+01
 48.92          3.00000e+01
 48.94          3.60000e+01
 48.96          3.50000e+01
 48.98          2.60000e+01
 49.00          2.90000e+01
 49.02          2.80000e+01
 49.04          3.60000e+01
 49.06          3.20000e+01
 49.08          3.10000e+01
 49.10          3.10000e+01
 49.12          2.40000e+01
 49.14          2.20000e+01
 49.16          3.00000e+01
 49.18          2.20000e+01
 49.20          2.10000e+01
 49.22          1.80000e+01
 49.24          2.00000e+01
 49.26          2.60000e+01
 49.28          2.00000e+01
 49.30          2.70000e+01
 49.32          3.00000e+01
 49.34          2.20000e+01
 49.36          2.50000e+01
 49.38          1.80000e+01
 49.40          2.90000e+01
 49.42          3.30000e+01
 49.44          2.30000e+01
 49.46          2.50000e+01
 49.48          2.20000e+01
 49.50          2.00000e+01
 49.52          2.40000e+01
 49.54          2.30000e+01
 49.56          2.80000e+01
 49.58          2.30000e+01
 49.60          2.70000e+01
 49.62          2.80000e+01
 49.64          2.70000e+01
 49.66          2.10000e+01
 49.68          1.70000e+01
 49.70          2.30000e+01
 49.72          2.10000e+01
 49.74          2.20000e+01
 49.76          3.10000e+01
 49.78          2.80000e+01
 49.80          3.40000e+01
 49.82          2.80000e+01
 49.84          3.30000e+01
 49.86          3.30000e+01
 49.88          2.30000e+01
 49.90          2.40000e+01
 49.92          3.30000e+01
 49.94          3.00000e+01
 49.96          2.30000e+01
 49.98          1.50000e+01
 50.00          2.10000e+01
 50.02          2.40000e+01
 50.04          1.90000e+01
 50.06          1.90000e+01
 50.08          1.70000e+01
 50.10          2.00000e+01
 50.12          2.90000e+01
 50.14          3.70000e+01
 50.16          2.80000e+01
 50.18          2.20000e+01
 50.20          3.00000e+01
 50.22          2.70000e+01
 50.24          2.90000e+01
 50.26          2.20000e+01
 50.28          2.30000e+01
 50.30          2.00000e+01
 50.32          2.50000e+01
 50.34          2.40000e+01
 50.36          2.50000e+01
 50.38          3.10000e+01
 50.40          2.60000e+01
 50.42          2.20000e+01
 50.44          3.00000e+01
 50.46          2.50000e+01
 50.48          2.00000e+01
 50.50          1.80000e+01
 50.52          2.40000e+01
 50.54          3.20000e+01
 50.56          1.70000e+01
 50.58          2.50000e+01
 50.60          2.50000e+01
 50.62          1.70000e+01
 50.64          2.60000e+01
 50.66          1.90000e+01
 50.68          3.10000e+01
 50.70          2.10000e+01
 50.72          1.60000e+01
 50.74          1.70000e+01
 50.76          2.50000e+01
 50.78          2.70000e+01
 50.80          2.60000e+01
 50.82          3.20000e+01
 50.84          2.30000e+01
 50.86          2.30000e+01
 50.88          3.00000e+01
 50.90          2.20000e+01
 50.92          3.10000e+01
 50.94          2.50000e+01
 50.96          2.60000e+01
 50.98          2.50000e+01
 51.00          1.40000e+01
 51.02          1.50000e+01
 51.04          2.90000e+01
 51.06          3.20000e+01
 51.08          2.50000e+01
 51.10          1.40000e+01
 51.12          1.60000e+01
 51.14          1.70000e+01
 51.16          2.10000e+01
 51.18          2.20000e+01
 51.20          2.30000e+01
 51.22          2.10000e+01
 51.24          2.40000e+01
 51.26          2.60000e+01
 51.28          2.20000e+01
 51.30          2.70000e+01
 51.32          2.20000e+01
 51.34          2.40000e+01
 51.36          1.50000e+01
 51.38          2.20000e+01
 51.40          2.30000e+01
 51.42          1.90000e+01
 51.44          1.70000e+01
 51.46          2.50000e+01
 51.48          1.30000e+01
 51.50          1.60000e+01
 51.52          2.20000e+01
 51.54          2.60000e+01
 51.56          1.80000e+01
 51.58          2.60000e+01
 51.60          3.70000e+01
 51.62          2.70000e+01
 51.64          3.20000e+01
 51.66          2.90000e+01
 51.68          3.00000e+01
 51.70          2.90000e+01
 51.72          1.90000e+01
 51.74          2.80000e+01
 51.76          3.00000e+01
 51.78          3.70000e+01
 51.80          2.20000e+01
 51.82          2.20000e+01
 51.84          3.10000e+01
 51.86          2.70000e+01
 51.88          3.30000e+01
 51.90          2.90000e+01
 51.92          1.40000e+01
 51.94          2.00000e+01
 51.96          3.60000e+01
 51.98          3.00000e+01
 52.00          2.60000e+01
 52.02          2.40000e+01
 52.04          3.00000e+01
 52.06          2.90000e+01
 52.08          2.30000e+01
 52.10          1.30000e+01
 52.12          2.30000e+01
 52.14          2.30000e+01
 52.16          1.80000e+01
 52.18          1.80000e+01
 52.20          2.30000e+01
 52.22          1.90000e+01
 52.24          1.90000e+01
 52.26          2.50000e+01
 52.28          1.70000e+01
 52.30          1.90000e+01
 52.32          2.00000e+01
 52.34          1.80000e+01
 52.36          1.70000e+01
 52.38          2.30000e+01
 52.40          2.60000e+01
 52.42          1.00000e+01
 52.44          2.20000e+01
 52.46          3.00000e+01
 52.48          3.00000e+01
 52.50          1.80000e+01
 52.52          2.20000e+01
 52.54          3.00000e+01
 52.56          1.30000e+01
 52.58          1.90000e+01
 52.60          2.20000e+01
 52.62          3.20000e+01
 52.64          3.70000e+01
 52.66          2.60000e+01
 52.68          1.70000e+01
 52.70          2.50000e+01
 52.72          2.60000e+01
 52.74          1.70000e+01
 52.76          1.90000e+01
 52.78          2.40000e+01
 52.80          3.00000e+01
 52.82          2.10000e+01
 52.84          2.20000e+01
 52.86          3.10000e+01
 52.88          2.40000e+01
 52.90          3.10000e+01
 52.92          2.20000e+01
 52.94          8.00000e+00
 52.96          2.00000e+01
 52.98          2.60000e+01
 53.00          2.70000e+01
 53.02          2.30000e+01
 53.04          2.70000e+01
 53.06          2.90000e+01
 53.08          1.90000e+01
 53.10          1.70000e+01
 53.12          1.10000e+01
 53.14          1.90000e+01
 53.16          2.90000e+01
 53.18          2.00000e+01
 53.20          2.10000e+01
 53.22          2.00000e+01
 53.24          3.10000e+01
 53.26          2.80000e+01
 53.28          3.20000e+01
 53.30          3.70000e+01
 53.32          2.10000e+01
 53.34          2.20000e+01
 53.36          2.60000e+01
 53.38          3.00000e+01
 53.40          2.70000e+01
 53.42          3.30000e+01
 53.44          2.50000e+01
 53.46          3.70000e+01
 53.48          3.60000e+01
 53.50          1.90000e+01
 53.52          2.10000e+01
 53.54          2.00000e+01
 53.56          1.90000e+01
 53.58          2.00000e+01
 53.60          2.40000e+01
 53.62          2.30000e+01
 53.64          1.70000e+01
 53.66          2.30000e+01
 53.68          3.40000e+01
 53.70          2.60000e+01
 53.72          2.50000e+01
 53.74          3.10000e+01
 53.76          2.80000e+01
 53.78          1.90000e+01
 53.80          2.30000e+01
 53.82          1.50000e+01
 53.84          3.20000e+01
 53.86          2.10000e+01
 53.88          3.00000e+01
 53.90          2.40000e+01
 53.92          2.70000e+01
 53.94          2.40000e+01
 53.96          3.10000e+01
 53.98          1.60000e+01
 54.00          2.10000e+01
 54.02          1.70000e+01
 54.04          1.90000e+01
 54.06          1.70000e+01
 54.08          1.90000e+01
 54.10          9.00000e+00
 54.12          1.80000e+01
 54.14          1.50000e+01
 54.16          2.10000e+01
 54.18          2.40000e+01
 54.20          1.70000e+01
 54.22          1.60000e+01
 54.24          2.40000e+01
 54.26          1.80000e+01
 54.28          2.10000e+01
 54.30          3.20000e+01
 54.32          2.50000e+01
 54.34          2.30000e+01
 54.36          2.50000e+01
 54.38          2.40000e+01
 54.40          2.40000e+01
 54.42          1.20000e+01
 54.44          1.30000e+01
 54.46          1.20000e+01
 54.48          1.60000e+01
 54.50          2.50000e+01
 54.52          1.10000e+01
 54.54          1.90000e+01
 54.56          2.70000e+01
 54.58          2.30000e+01
 54.60          1.80000e+01
 54.62          2.30000e+01
 54.64          1.40000e+01
 54.66          1.70000e+01
 54.68          1.90000e+01
 54.70          1.80000e+01
 54.72          2.30000e+01
 54.74          2.80000e+01
 54.76          2.40000e+01
 54.78          2.30000e+01
 54.80          3.60000e+01
 54.82          2.10000e+01
 54.84          2.50000e+01
 54.86          3.10000e+01
 54.88          2.40000e+01
 54.90          2.20000e+01
 54.92          2.70000e+01
 54.94          2.10000e+01
 54.96          3.20000e+01
 54.98          2.60000e+01
 55.00          1.80000e+01
 55.02          1.80000e+01
 55.04          2.30000e+01
 55.06          1.40000e+01
 55.08          2.30000e+01
 55.10          2.40000e+01
 55.12          2.60000e+01
 55.14          2.00000e+01
 55.16          1.40000e+01
 55.18          2.60000e+01
 55.20          3.20000e+01
 55.22          2.10000e+01
 55.24          1.80000e+01
 55.26          2.30000e+01
 55.28          2.20000e+01
 55.30          2.10000e+01
 55.32          3.10000e+01
 55.34          3.00000e+01
 55.36          2.60000e+01
 55.38          2.50000e+01
 55.40          3.10000e+01
 55.42          2.80000e+01
 55.44          1.60000e+01
 55.46          2.00000e+01
 55.48          2.30000e+01
 55.50          2.40000e+01
 55.52          2.70000e+01
 55.54          2.80000e+01
 55.56          2.30000e+01
 55.58          2.50000e+01
 55.60          1.20000e+01
 55.62          1.60000e+01
 55.64          2.10000e+01
 55.66          2.50000e+01
 55.68          2.00000e+01
 55.70          2.00000e+01
 55.72          2.00000e+01
 55.74          2.60000e+01
 55.76          2.40000e+01
 55.78          2.30000e+01
 55.80          2.70000e+01
 55.82          2.80000e+01
 55.84          2.70000e+01
 55.86          2.60000e+01
 55.88          3.00000e+01
 55.90          2.10000e+01
 55.92          1.70000e+01
 55.94          2.20000e+01
 55.96          2.60000e+01
 55.98          2.10000e+01
 56.00          1.60000e+01
 56.02          2.50000e+01
 56.04          9.00000e+00
 56.06          1.80000e+01
 56.08          2.30000e+01
 56.10          2.20000e+01
 56.12          3.20000e+01
 56.14          2.60000e+01
 56.16          2.00000e+01
 56.18          1.70000e+01
 56.20          2.50000e+01
 56.22          2.40000e+01
 56.24          2.10000e+01
 56.26          1.40000e+01
 56.28          1.90000e+01
 56.30          2.40000e+01
 56.32          2.70000e+01
 56.34          2.90000e+01
 56.36          2.80000e+01
 56.38          3.30000e+01
 56.40          4.00000e+01
 56.42          2.00000e+01
 56.44          2.40000e+01
 56.46          1.90000e+01
 56.48          1.70000e+01
 56.50          2.70000e+01
 56.52          2.60000e+01
 56.54          2.30000e+01
 56.56          1.60000e+01
 56.58          2.10000e+01
 56.60          2.40000e+01
 56.62          2.00000e+01
 56.64          1.10000e+01
 56.66          1.70000e+01
 56.68          2.10000e+01
 56.70          2.50000e+01
 56.72          2.40000e+01
 56.74          1.90000e+01
 56.76          2.40000e+01
 56.78          2.50000e+01
 56.80          2.60000e+01
 56.82          2.40000e+01
 56.84          2.30000e+01
 56.86          2.20000e+01
 56.88          2.50000e+01
 56.90          2.80000e+01
 56.92          2.00000e+01
 56.94          1.80000e+01
 56.96          1.40000e+01
 56.98          1.70000e+01
 57.00          1.90000e+01
 57.02          2.60000e+01
 57.04          2.70000e+01
 57.06          1.90000e+01
 57.08          1.80000e+01
 57.10          1.90000e+01
 57.12          2.30000e+01
 57.14          2.60000e+01
 57.16          2.90000e+01
 57.18          2.20000e+01
 57.20          2.20000e+01
 57.22          1.50000e+01
 57.24          1.90000e+01
 57.26          1.40000e+01
 57.28          2.50000e+01
 57.30          3.20000e+01
 57.32          3.10000e+01
 57.34          2.30000e+01
 57.36          2.20000e+01
 57.38          3.10000e+01
 57.40          2.50000e+01
 57.42          2.40000e+01
 57.44          2.30000e+01
 57.46          1.20000e+01
 57.48          2.40000e+01
 57.50          2.00000e+01
 57.52          2.70000e+01
 57.54          2.40000e+01
 57.56          2.70000e+01
 57.58          2.60000e+01
 57.60          1.30000e+01
 57.62          1.90000e+01
 57.64          3.10000e+01
 57.66          2.40000e+01
 57.68          2.50000e+01
 57.70          1.10000e+01
 57.72          1.20000e+01
 57.74          1.80000e+01
 57.76          1.40000e+01
 57.78          1.70000e+01
 57.80          2.60000e+01
 57.82          1.80000e+01
 57.84          2.30000e+01
 57.86          2.00000e+01
 57.88          1.40000e+01
 57.90          1.60000e+01
 57.92          2.10000e+01
 57.94          2.50000e+01
 57.96          2.30000e+01
 57.98          2.50000e+01
 58.00          1.80000e+01
 58.02          2.00000e+01
 58.04          2.30000e+01
 58.06          2.30000e+01
 58.08          1.60000e+01
 58.10          2.10000e+01
 58.12          3.10000e+01
 58.14          1.70000e+01
 58.16          2.00000e+01
 58.18          2.70000e+01
 58.20          2.00000e+01
 58.22          1.90000e+01
 58.24          3.10000e+01
 58.26          2.10000e+01
 58.28          1.80000e+01
 58.30          1.80000e+01
 58.32          1.50000e+01
 58.34          1.90000e+01
 58.36          2.70000e+01
 58.38          1.60000e+01
 58.40          1.40000e+01
 58.42          2.20000e+01
 58.44          2.50000e+01
 58.46          2.10000e+01
 58.48          2.00000e+01
 58.50          2.30000e+01
 58.52          2.50000e+01
 58.54          2.20000e+01
 58.56          2.70000e+01
 58.58          2.30000e+01
 58.60          3.00000e+01
 58.62          2.30000e+01
 58.64          3.20000e+01
 58.66          2.40000e+01
 58.68          2.00000e+01
 58.70          2.10000e+01
 58.72          1.80000e+01
 58.74          1.80000e+01
 58.76          2.70000e+01
 58.78          1.80000e+01
 58.80          1.70000e+01
 58.82          1.60000e+01
 58.84          1.70000e+01
 58.86          1.60000e+01
 58.88          2.40000e+01
 58.90          2.60000e+01
 58.92          1.40000e+01
 58.94          1.70000e+01
 58.96          1.40000e+01
 58.98          1.50000e+01
 59.00          2.80000e+01
 59.02          2.30000e+01
 59.04          2.80000e+01
 59.06          2.20000e+01
 59.08          3.10000e+01
 59.10          1.70000e+01
 59.12          2.20000e+01
 59.14          3.20000e+01
 59.16          3.30000e+01
 59.18          2.00000e+01
 59.20          2.40000e+01
 59.22          1.90000e+01
 59.24          1.50000e+01
 59.26          2.60000e+01
 59.28          1.70000e+01
 59.30          2.10000e+01
 59.32          2.30000e+01
 59.34          2.80000e+01
 59.36          2.30000e+01
 59.38          1.70000e+01
 59.40          2.40000e+01
 59.42          2.30000e+01
 59.44          2.20000e+01
 59.46          2.20000e+01
 59.48          1.90000e+01
 59.50          2.40000e+01
 59.52          2.50000e+01
 59.54          2.20000e+01
 59.56          1.90000e+01
 59.58          1.70000e+01
 59.60          1.70000e+01
 59.62          2.30000e+01
 59.64          1.70000e+01
 59.66          2.00000e+01
 59.68          2.10000e+01
 59.70          1.40000e+01
 59.72          1.70000e+01
 59.74          1.80000e+01
 59.76          2.10000e+01
 59.78          1.80000e+01
 59.80          3.20000e+01
 59.82          3.30000e+01
 59.84          2.80000e+01
 59.86          2.90000e+01
 59.88          2.70000e+01
 59.90          1.50000e+01
 59.92          2.10000e+01
 59.94          2.10000e+01
 59.96          1.70000e+01
 59.98          1.80000e+01
 60.00          1.20000e+01
 60.02          1.80000e+01
 60.04          1.90000e+01
 60.06          1.60000e+01
 60.08          1.80000e+01
 60.10          2.20000e+01
 60.12          2.00000e+01
 60.14          1.50000e+01
 60.16          1.60000e+01
 60.18          1.50000e+01
 60.20          1.80000e+01
 60.22          2.50000e+01
 60.24          2.30000e+01
 60.26          2.40000e+01
 60.28          2.80000e+01
 60.30          2.40000e+01
 60.32          2.10000e+01
 60.34          3.30000e+01
 60.36          2.50000e+01
 60.38          1.70000e+01
 60.40          2.60000e+01
 60.42          1.90000e+01
 60.44          2.40000e+01
 60.46          2.40000e+01
 60.48          2.40000e+01
 60.50          2.90000e+01
 60.52          2.80000e+01
 60.54          3.00000e+01
 60.56          2.30000e+01
 60.58          2.80000e+01
 60.60          2.70000e+01
 60.62          1.60000e+01
 60.64          1.50000e+01
 60.66          1.60000e+01
 60.68          2.60000e+01
 60.70          3.10000e+01
 60.72          2.70000e+01
 60.74          1.90000e+01
 60.76          2.20000e+01
 60.78          1.70000e+01
 60.80          2.20000e+01
 60.82          1.60000e+01
 60.84          1.20000e+01
 60.86          1.50000e+01
 60.88          2.50000e+01
 60.90          2.70000e+01
 60.92          1.90000e+01
 60.94          1.70000e+01
 60.96          2.20000e+01
 60.98          2.70000e+01
 61.00          3.10000e+01
 61.02          1.90000e+01
 61.04          2.00000e+01
 61.06          1.90000e+01
 61.08          1.40000e+01
 61.10          1.50000e+01
 61.12          1.30000e+01
 61.14          2.10000e+01
 61.16          2.00000e+01
 61.18          2.50000e+01
 61.20          2.50000e+01
 61.22          2.10000e+01
 61.24          2.20000e+01
 61.26          3.00000e+01
 61.28          2.10000e+01
 61.30          1.80000e+01
 61.32          2.20000e+01
 61.34          1.90000e+01
 61.36          2.00000e+01
 61.38          1.60000e+01
 61.40          2.00000e+01
 61.42          2.10000e+01
 61.44          2.40000e+01
 61.46          1.70000e+01
 61.48          2.00000e+01
 61.50          3.20000e+01
 61.52          3.20000e+01
 61.54          2.10000e+01
 61.56          2.20000e+01
 61.58          2.60000e+01
 61.60          2.00000e+01
 61.62          1.80000e+01
 61.64          2.40000e+01
 61.66          1.60000e+01
 61.68          1.90000e+01
 61.70          2.40000e+01
 61.72          1.50000e+01
 61.74          2.20000e+01
 61.76          2.10000e+01
 61.78          2.60000e+01
 61.80          1.90000e+01
 61.82          2.90000e+01
 61.84          2.20000e+01
 61.86          2.30000e+01
 61.88          2.10000e+01
 61.90          2.30000e+01
 61.92          2.20000e+01
 61.94          2.60000e+01
 61.96          2.00000e+01
 61.98          1.90000e+01
 62.00          2.10000e+01
 62.02          2.80000e+01
 62.04          2.70000e+01
 62.06          3.30000e+01
 62.08          3.10000e+01
 62.10          2.40000e+01
 62.12          2.50000e+01
 62.14          1.20000e+01
 62.16          1.30000e+01
 62.18          2.40000e+01
 62.20          3.00000e+01
 62.22          2.20000e+01
 62.24          1.60000e+01
 62.26          2.80000e+01
 62.28          2.20000e+01
 62.30          1.20000e+01
 62.32          1.90000e+01
 62.34          1.90000e+01
 62.36          1.90000e+01
 62.38          3.20000e+01
 62.40          2.70000e+01
 62.42          1.80000e+01
 62.44          2.20000e+01
 62.46          2.10000e+01
 62.48          2.60000e+01
 62.50          2.70000e+01
 62.52          2.00000e+01
 62.54          2.10000e+01
 62.56          2.60000e+01
 62.58          1.80000e+01
 62.60          1.60000e+01
 62.62          1.40000e+01
 62.64          1.90000e+01
 62.66          1.50000e+01
 62.68          1.70000e+01
 62.70          2.00000e+01
 62.72          2.40000e+01
 62.74          1.90000e+01
 62.76          2.40000e+01
 62.78          1.80000e+01
 62.80          1.80000e+01
 62.82          1.40000e+01
 62.84          1.20000e+01
 62.86          1.60000e+01
 62.88          2.80000e+01
 62.90          1.70000e+01
 62.92          2.40000e+01
 62.94          2.00000e+01
 62.96          1.10000e+01
 62.98          2.70000e+01
 63.00          2.90000e+01
 63.02          2.80000e+01
 63.04          2.10000e+01
 63.06          1.30000e+01
 63.08          3.10000e+01
 63.10          2.00000e+01
 63.12          2.50000e+01
 63.14          1.80000e+01
 63.16          1.80000e+01
 63.18          2.00000e+01
 63.20          2.90000e+01
 63.22          2.10000e+01
 63.24          2.60000e+01
 63.26          2.50000e+01
 63.28          2.40000e+01
 63.30          1.80000e+01
 63.32          1.80000e+01
 63.34          2.50000e+01
 63.36          2.20000e+01
 63.38          2.00000e+01
 63.40          8.00000e+00
 63.42          1.60000e+01
 63.44          2.20000e+01
 63.46          2.10000e+01
 63.48          2.30000e+01
 63.50          2.00000e+01
 63.52          2.60000e+01
 63.54          1.90000e+01
 63.56          1.50000e+01
 63.58          1.70000e+01
 63.60          1.00000e+01
 63.62          1.70000e+01
 63.64          3.30000e+01
 63.66          4.40000e+01
 63.68          2.30000e+01
 63.70          1.70000e+01
 63.72          2.00000e+01
 63.74          2.00000e+01
 63.76          2.10000e+01
 63.78          1.10000e+01
 63.80          1.50000e+01
 63.82          1.80000e+01
 63.84          1.50000e+01
 63.86          1.60000e+01
 63.88          1.80000e+01
 63.90          1.90000e+01
 63.92          2.40000e+01
 63.94          1.80000e+01
 63.96          1.50000e+01
 63.98          1.10000e+01
 64.00          2.30000e+01
 64.02          1.70000e+01
 64.04          1.90000e+01
 64.06          1.80000e+01
 64.08          2.60000e+01
 64.10          2.00000e+01
 64.12          1.20000e+01
 64.14          8.00000e+00
 64.16          1.30000e+01
 64.18          2.30000e+01
 64.20          1.90000e+01
 64.22          2.20000e+01
 64.24          2.60000e+01
 64.26          2.10000e+01
 64.28          2.00000e+01
 64.30          1.50000e+01
 64.32          2.10000e+01
 64.34          2.10000e+01
 64.36          1.10000e+01
 64.38          2.20000e+01
 64.40          1.10000e+01
 64.42          1.30000e+01
 64.44          2.20000e+01
 64.46          2.10000e+01
 64.48          1.50000e+01
 64.50          2.70000e+01
 64.52          2.50000e+01
 64.54          2.30000e+01
 64.56          1.50000e+01
 64.58          1.30000e+01
 64.60          2.10000e+01
 64.62          1.90000e+01
 64.64          2.80000e+01
 64.66          2.00000e+01
 64.68          2.30000e+01
 64.70          2.70000e+01
 64.72          2.20000e+01
 64.74          2.80000e+01
 64.76          2.30000e+01
 64.78          2.50000e+01
 64.80          2.40000e+01
 64.82          2.10000e+01
 64.84          1.90000e+01
 64.86          3.10000e+01
 64.88          1.90000e+01
 64.90          1.20000e+01
 64.92          3.20000e+01
 64.94          2.10000e+01
 64.96          1.60000e+01
 64.98          2.00000e+01
 65.00          1.90000e+01
 65.02          2.40000e+01
 65.04          2.50000e+01
 65.06          1.70000e+01
 65.08          1.60000e+01
 65.10          1.40000e+01
 65.12          1.60000e+01
 65.14          2.20000e+01
 65.16          1.90000e+01
 65.18          1.10000e+01
 65.20          1.10000e+01
 65.22          2.10000e+01
 65.24          2.20000e+01
 65.26          2.10000e+01
 65.28          1.60000e+01
 65.30          1.40000e+01
 65.32          1.20000e+01
 65.34          2.70000e+01
 65.36          2.20000e+01
 65.38          2.10000e+01
 65.40          2.10000e+01
 65.42          1.60000e+01
 65.44          1.80000e+01
 65.46          1.70000e+01
 65.48          2.20000e+01
 65.50          1.90000e+01
 65.52          2.00000e+01
 65.54          2.30000e+01
 65.56          2.70000e+01
 65.58          2.10000e+01
 65.60          1.90000e+01
 65.62          1.80000e+01
 65.64          2.40000e+01
 65.66          2.20000e+01
 65.68          2.30000e+01
 65.70          1.60000e+01
 65.72          2.10000e+01
 65.74          1.80000e+01
 65.76          1.60000e+01
 65.78          1.80000e+01
 65.80          1.30000e+01
 65.82          1.00000e+01
 65.84          2.50000e+01
 65.86          2.80000e+01
 65.88          1.20000e+01
 65.90          2.30000e+01
 65.92          2.00000e+01
 65.94          1.60000e+01
 65.96          2.30000e+01
 65.98          2.20000e+01
 66.00          1.70000e+01
 66.02          2.50000e+01
 66.04          3.00000e+01
 66.06          3.00000e+01
 66.08          2.00000e+01
 66.10          1.90000e+01
 66.12          1.40000e+01
 66.14          1.50000e+01
 66.16          1.40000e+01
 66.18          2.30000e+01
 66.20          2.60000e+01
 66.22          2.00000e+01
 66.24          1.90000e+01
 66.26          1.70000e+01
 66.28          1.80000e+01
 66.30          1.90000e+01
 66.32          1.10000e+01
 66.34          1.70000e+01
 66.36          1.90000e+01
 66.38          1.40000e+01
 66.40          1.20000e+01
 66.42          2.80000e+01
 66.44          3.30000e+01
 66.46          1.80000e+01
 66.48          1.10000e+01
 66.50          1.20000e+01
 66.52          1.20000e+01
 66.54          1.20000e+01
 66.56          1.20000e+01
 66.58          2.10000e+01
 66.60          3.00000e+01
 66.62          2.50000e+01
 66.64          1.90000e+01
 66.66          1.90000e+01
 66.68          1.60000e+01
 66.70          1.60000e+01
 66.72          9.00000e+00
 66.74          2.10000e+01
 66.76          2.10000e+01
 66.78          2.00000e+01
 66.80          7.00000e+00
 66.82          1.70000e+01
 66.84          2.00000e+01
 66.86          1.30000e+01
 66.88          9.00000e+00
 66.90          9.00000e+00
 66.92          2.10000e+01
 66.94          1.90000e+01
 66.96          1.30000e+01
 66.98          1.60000e+01
 67.00          1.50000e+01
 67.02          1.60000e+01
 67.04          2.30000e+01
 67.06          2.00000e+01
 67.08          1.00000e+01
 67.10          1.70000e+01
 67.12          2.50000e+01
 67.14          2.10000e+01
 67.16          2.70000e+01
 67.18          2.90000e+01
 67.20          2.50000e+01
 67.22          1.80000e+01
 67.24          1.10000e+01
 67.26          2.10000e+01
 67.28          2.30000e+01
 67.30          1.80000e+01
 67.32          2.00000e+01
 67.34          2.40000e+01
 67.36          1.80000e+01
 67.38          2.10000e+01
 67.40          1.20000e+01
 67.42          1.60000e+01
 67.44          1.80000e+01
 67.46          1.80000e+01
 67.48          2.30000e+01
 67.50          2.60000e+01
 67.52          2.00000e+01
 67.54          1.70000e+01
 67.56          9.00000e+00
 67.58          1.10000e+01
 67.60          3.00000e+01
 67.62          2.50000e+01
 67.64          2.40000e+01
 67.66          1.80000e+01
 67.68          1.50000e+01
 67.70          1.10000e+01
 67.72          9.00000e+00
 67.74          6.00000e+00
 67.76          1.50000e+01
 67.78          1.90000e+01
 67.80          2.10000e+01
 67.82          1.20000e+01
 67.84          1.30000e+01
 67.86          1.80000e+01
 67.88          1.40000e+01
 67.90          2.00000e+01
 67.92          3.10000e+01
 67.94          2.40000e+01
 67.96          1.80000e+01
 67.98          1.80000e+01
 68.00          2.10000e+01
 68.02          1.20000e+01
 68.04          2.30000e+01
 68.06          3.30000e+01
 68.08          2.50000e+01
 68.10          1.80000e+01
 68.12          1.60000e+01
 68.14          1.40000e+01
 68.16          2.60000e+01
 68.18          2.40000e+01
 68.20          3.00000e+01
 68.22          2.40000e+01
 68.24          2.00000e+01
 68.26          1.90000e+01
 68.28          1.70000e+01
 68.30          1.70000e+01
 68.32          2.10000e+01
 68.34          2.40000e+01
 68.36          4.90000e+01
 68.38          2.10000e+01
 68.40          2.20000e+01
 68.42          2.20000e+01
 68.44          2.60000e+01
 68.46          2.60000e+01
 68.48          2.30000e+01
 68.50          1.70000e+01
 68.52          2.00000e+01
 68.54          2.20000e+01
 68.56          1.20000e+01
 68.58          1.60000e+01
 68.60          1.50000e+01
 68.62          1.70000e+01
 68.64          2.00000e+01
 68.66          1.80000e+01
 68.68          2.80000e+01
 68.70          1.80000e+01
 68.72          1.40000e+01
 68.74          1.40000e+01
 68.76          2.10000e+01
 68.78          1.60000e+01
 68.80          2.00000e+01
 68.82          3.00000e+01
 68.84          2.30000e+01
 68.86          2.10000e+01
 68.88          2.30000e+01
 68.90          2.10000e+01
 68.92          2.00000e+01
 68.94          1.40000e+01
 68.96          1.40000e+01
 68.98          8.00000e+00
 69.00          2.10000e+01
 69.02          2.60000e+01
 69.04          1.90000e+01
 69.06          1.40000e+01
 69.08          1.40000e+01
 69.10          1.50000e+01
 69.12          2.80000e+01
 69.14          1.90000e+01
 69.16          2.80000e+01
 69.18          1.30000e+01
 69.20          1.30000e+01
 69.22          1.90000e+01
 69.24          1.30000e+01
 69.26          1.70000e+01
 69.28          2.20000e+01
 69.30          1.80000e+01
 69.32          1.60000e+01
 69.34          1.80000e+01
 69.36          1.00000e+01
 69.38          7.00000e+00
 69.40          1.30000e+01
 69.42          2.20000e+01
 69.44          2.10000e+01
 69.46          1.50000e+01
 69.48          1.60000e+01
 69.50          1.50000e+01
 69.52          1.80000e+01
 69.54          1.00000e+01
 69.56          1.70000e+01
 69.58          1.40000e+01
 69.60          1.10000e+01
 69.62          1.30000e+01
 69.64          1.80000e+01
 69.66          1.70000e+01
 69.68          1.80000e+01
 69.70          1.30000e+01
 69.72          1.30000e+01
 69.74          2.30000e+01
 69.76          1.90000e+01
 69.78          7.00000e+00
 69.80          1.30000e+01
 69.82          1.00000e+01
 69.84          1.50000e+01
 69.86          1.80000e+01
 69.88          1.40000e+01
 69.90          2.40000e+01
 69.92          1.70000e+01
 69.94          1.20000e+01
 69.96          2.30000e+01
 69.98          1.20000e+01
 70.00          1.20000e+01
 70.02          1.20000e+01
 70.04          1.50000e+01
 70.06          1.60000e+01
 70.08          1.00000e+01
 70.10          1.60000e+01
 70.12          1.60000e+01
 70.14          1.00000e+01
 70.16          1.60000e+01
 70.18          1.70000e+01
 70.20          2.80000e+01
 70.22          1.90000e+01
 70.24          2.20000e+01
 70.26          2.50000e+01
 70.28          1.90000e+01
 70.30          1.80000e+01
 70.32          1.70000e+01
 70.34          1.80000e+01
 70.36          1.30000e+01
 70.38          1.90000e+01
 70.40          1.90000e+01
 70.42          1.00000e+01
 70.44          1.50000e+01
 70.46          2.20000e+01
 70.48          1.70000e+01
 70.50          1.90000e+01
 70.52          1.60000e+01
 70.54          1.30000e+01
 70.56          1.60000e+01
 70.58          1.90000e+01
 70.60          1.80000e+01
 70.62          1.90000e+01
 70.64          1.20000e+01
 70.66          1.20000e+01
 70.68          1.00000e+01
 70.70          2.20000e+01
 70.72          1.60000e+01
 70.74          1.80000e+01
 70.76          2.90000e+01
 70.78          2.00000e+01
 70.80          1.40000e+01
 70.82          2.20000e+01
 70.84          1.50000e+01
 70.86          1.40000e+01
 70.88          1.80000e+01
 70.90          1.40000e+01
 70.92          1.60000e+01
 70.94          2.20000e+01
 70.96          2.20000e+01
 70.98          1.80000e+01
 71.00          1.60000e+01
 71.02          2.20000e+01
 71.04          2.40000e+01
 71.06          1.70000e+01
 71.08          2.10000e+01
 71.10          2.00000e+01
 71.12          2.40000e+01
 71.14          2.10000e+01
 71.16          2.20000e+01
 71.18          2.10000e+01
 71.20          1.30000e+01
 71.22          1.00000e+01
 71.24          2.40000e+01
 71.26          2.60000e+01
 71.28          1.50000e+01
 71.30          1.50000e+01
 71.32          1.70000e+01
 71.34          2.00000e+01
 71.36          1.40000e+01
 71.38          2.10000e+01
 71.40          1.20000e+01
 71.42          2.30000e+01
 71.44          2.40000e+01
 71.46          2.20000e+01
 71.48          1.60000e+01
 71.50          1.90000e+01
 71.52          2.10000e+01
 71.54          2.40000e+01
 71.56          1.00000e+01
 71.58          1.10000e+01
 71.60          1.30000e+01
 71.62          1.50000e+01
 71.64          1.90000e+01
 71.66          2.10000e+01
 71.68          9.00000e+00
 71.70          1.80000e+01
 71.72          1.80000e+01
 71.74          2.40000e+01
 71.76          1.70000e+01
 71.78          2.40000e+01
 71.80          3.50000e+01
 71.82          2.20000e+01
 71.84          1.50000e+01
 71.86          1.50000e+01
 71.88          1.90000e+01
 71.90          1.30000e+01
 71.92          1.40000e+01
 71.94          1.30000e+01
 71.96          1.70000e+01
 71.98          2.20000e+01
 72.00          2.30000e+01
 72.02          2.50000e+01
 72.04          1.70000e+01
 72.06          2.10000e+01
 72.08          2.00000e+01
 72.10          1.40000e+01
 72.12          1.60000e+01
 72.14          1.40000e+01
 72.16          1.60000e+01
 72.18          1.90000e+01
 72.20          1.30000e+01
 72.22          1.70000e+01
 72.24          2.40000e+01
 72.26          1.10000e+01
 72.28          1.30000e+01
 72.30          1.90000e+01
 72.32          2.30000e+01
 72.34          1.60000e+01
 72.36          2.60000e+01
 72.38          1.60000e+01
 72.40          2.20000e+01
 72.42          2.70000e+01
 72.44          1.10000e+01
 72.46          1.40000e+01
 72.48          2.30000e+01
 72.50          2.50000e+01
 72.52          2.80000e+01
 72.54          2.20000e+01
 72.56          2.30000e+01
 72.58          3.20000e+01
 72.60          1.50000e+01
 72.62          1.90000e+01
 72.64          1.90000e+01
 72.66          2.40000e+01
 72.68          1.30000e+01
 72.70          1.70000e+01
 72.72          2.10000e+01
 72.74          1.70000e+01
 72.76          2.20000e+01
 72.78          2.10000e+01
 72.80          2.20000e+01
 72.82          1.70000e+01
 72.84          2.70000e+01
 72.86          2.10000e+01
 72.88          1.50000e+01
 72.90          2.90000e+01
 72.92          1.80000e+01
 72.94          1.50000e+01
 72.96          1.40000e+01
 72.98          8.00000e+00
 73.00          1.80000e+01
 73.02          2.30000e+01
 73.04          1.50000e+01
 73.06          2.20000e+01
 73.08          1.70000e+01
 73.10          9.00000e+00
 73.12          1.50000e+01
 73.14          2.80000e+01
 73.16          2.30000e+01
 73.18          1.60000e+01
 73.20          1.30000e+01
 73.22          1.90000e+01
 73.24          1.20000e+01
 73.26          1.50000e+01
 73.28          1.50000e+01
 73.30          9.00000e+00
 73.32          1.90000e+01
 73.34          1.00000e+01
 73.36          2.90000e+01
 73.38          2.30000e+01
 73.40          1.50000e+01
 73.42          1.90000e+01
 73.44          1.70000e+01
 73.46          1.30000e+01
 73.48          1.70000e+01
 73.50          2.40000e+01
 73.52          1.70000e+01
 73.54          1.10000e+01
 73.56          1.70000e+01
 73.58          2.10000e+01
 73.60          1.80000e+01
 73.62          2.00000e+01
 73.64          1.70000e+01
 73.66          1.40000e+01
 73.68          2.50000e+01
 73.70          2.50000e+01
 73.72          1.50000e+01
 73.74          2.20000e+01
 73.76          2.60000e+01
 73.78          1.80000e+01
 73.80          1.80000e+01
 73.82          1.50000e+01
 73.84          2.50000e+01
 73.86          2.00000e+01
 73.88          2.20000e+01
 73.90          1.60000e+01
 73.92          1.20000e+01
 73.94          1.80000e+01
 73.96          1.80000e+01
 73.98          2.60000e+01
 74.00          1.90000e+01
 74.02          1.80000e+01
 74.04          1.60000e+01
 74.06          1.80000e+01
 74.08          1.80000e+01
 74.10          2.10000e+01
 74.12          1.90000e+01
 74.14          1.50000e+01
 74.16          2.50000e+01
 74.18          1.90000e+01
 74.20          1.60000e+01
 74.22          1.40000e+01
 74.24          1.20000e+01
 74.26          1.30000e+01
 74.28          2.30000e+01
 74.30          2.60000e+01
 74.32          1.70000e+01
 74.34          2.00000e+01
 74.36          1.70000e+01
 74.38          1.90000e+01
 74.40          2.20000e+01
 74.42          2.20000e+01
 74.44          1.90000e+01
 74.46          1.70000e+01
 74.48          2.90000e+01
 74.50          2.20000e+01
 74.52          1.80000e+01
 74.54          1.10000e+01
 74.56          7.00000e+00
 74.58          1.10000e+01
 74.60          1.70000e+01
 74.62          1.80000e+01
 74.64          9.00000e+00
 74.66          1.50000e+01
 74.68          1.40000e+01
 74.70          1.40000e+01
 74.72          2.00000e+01
 74.74          2.00000e+01
 74.76          9.00000e+00
 74.78          1.00000e+01
 74.80          1.80000e+01
 74.82          2.00000e+01
 74.84          1.80000e+01
 74.86          1.90000e+01
 74.88          1.60000e+01
 74.90          2.30000e+01
 74.92          2.10000e+01
 74.94          1.90000e+01
 74.96          1.80000e+01
 74.98          1.60000e+01
